LabVIEW Measurement	
Writer_Version	2
Reader_Version	2
Separator	Tab
Decimal_Separator	,
Multi_Headings	Yes
X_Columns	One
Time_Pref	Absolute
Operator	d.nicolai
Date	2023/11/09
Time	15:58:22,5385127999997216582
***End_of_Header***	
	
Channels	2		
Samples	1000	1000	
Date	2023/11/09	2023/11/09	
Time	15:58:30,9905124999994876155	15:58:30,9905124999994876155	
Y_Unit_Label	Volts	Volts	
X_Dimension	Time	Time	
X0	0,0000000000000000E+0	0,0000000000000000E+0	
Delta_X	0,001000	0,001000	
***End_of_Header***			
X_Value	powebox	triggerbox	Comment
0,000000	0,795746	0,905304
0,001000	0,797119	3,067322
0,002000	0,793457	4,363556
0,003000	0,798340	4,999847
0,004000	0,791779	4,999847
0,005000	0,799408	4,999847
0,006000	0,789795	4,999847
0,007000	0,801086	4,999847
0,008000	0,788879	4,521027
0,009000	0,800629	2,952576
0,010000	0,790863	2,600861
0,011000	0,798035	4,601135
0,012000	0,792542	4,999847
0,013000	0,795746	4,999847
0,014000	0,794373	4,999847
0,015000	0,794067	4,999847
0,016000	0,796204	4,999847
0,017000	0,791931	4,999847
0,018000	0,798035	4,399261
0,019000	0,790558	4,010773
0,020000	0,799713	2,923737
0,021000	0,788269	3,596344
0,022000	0,800934	4,999847
0,023000	0,787964	4,999847
0,024000	0,799103	4,999847
0,025000	0,790253	4,999847
0,026000	0,796204	4,999847
0,027000	0,792084	4,999847
0,028000	0,794067	4,999847
0,029000	0,794373	3,588867
0,030000	0,792389	2,808075
0,031000	0,795746	4,846191
0,032000	0,790558	4,999847
0,033000	0,797729	4,999847
0,034000	0,788422	4,999847
0,035000	0,799103	4,999847
0,036000	0,787048	4,999847
0,037000	0,799866	4,999847
0,038000	0,788116	4,813843
0,039000	0,797882	4,491119
0,040000	0,790100	4,003601
0,041000	0,795441	2,782745
0,042000	0,792236	4,999847
0,043000	0,792847	4,999847
0,044000	0,794983	4,999847
0,045000	0,791016	4,999847
0,046000	0,796204	4,999847
0,047000	0,788879	4,999847
0,048000	0,797729	4,381866
0,049000	0,787811	3,401642
0,050000	0,798645	3,858032
0,051000	0,786133	3,250275
0,052000	0,798645	4,999847
0,053000	0,787964	4,999847
0,054000	0,796204	4,999847
0,055000	0,790405	4,999847
0,056000	0,793915	4,999847
0,057000	0,792542	4,999847
0,058000	0,791931	4,999847
0,059000	0,794220	3,541107
0,060000	0,789795	4,018860
0,061000	0,796051	3,716736
0,062000	0,787659	4,999847
0,063000	0,797272	4,999847
0,064000	0,785980	4,999847
0,065000	0,798492	4,999847
0,066000	0,785370	4,999847
0,067000	0,797272	4,999847
0,068000	0,787811	4,999847
0,069000	0,794220	4,008484
0,070000	0,789795	2,823486
0,071000	0,792084	3,988342
0,072000	0,791931	4,999847
0,073000	0,789795	4,999847
0,074000	0,792999	4,999847
0,075000	0,787964	4,999847
0,076000	0,791473	4,999847
0,077000	0,784454	4,999847
0,078000	0,795593	4,393768
0,079000	0,784760	3,937073
0,080000	0,783234	3,847809
0,081000	0,778656	3,855133
0,082000	0,792236	4,999847
0,083000	0,786438	4,999847
0,084000	0,792542	4,999847
0,085000	0,789337	4,999847
0,086000	0,790100	4,999847
0,087000	0,790863	4,999847
0,088000	0,787964	4,557800
0,089000	0,792694	3,197021
0,090000	0,785980	1,892853
0,091000	0,794220	4,645996
0,092000	0,784912	4,999847
0,093000	0,795441	4,999847
0,094000	0,783386	4,999847
0,095000	0,795135	4,999847
0,096000	0,785065	4,999847
0,097000	0,792847	4,999847
0,098000	0,786896	4,999847
0,099000	0,790253	4,531555
0,100000	0,789185	4,404449
0,101000	0,787811	3,910370
0,102000	0,788574	4,703217
0,103000	0,785828	4,999847
0,104000	0,791626	4,999847
0,105000	0,784607	4,999847
0,106000	0,793304	4,999847
0,107000	0,783386	4,999847
0,108000	0,793915	4,207306
0,109000	0,781860	3,208466
0,110000	0,793152	3,562164
0,111000	0,784302	4,303894
0,112000	0,790558	4,999847
0,113000	0,786591	4,999847
0,114000	0,788116	4,999847
0,115000	0,787506	4,999847
0,116000	0,785828	4,999847
0,117000	0,788879	4,999847
0,118000	0,784454	4,999847
0,119000	0,789948	4,325104
0,120000	0,782318	3,278046
0,121000	0,790863	4,189148
0,122000	0,781403	4,999847
0,123000	0,791779	4,999847
0,124000	0,781708	4,999847
0,125000	0,789337	4,999847
0,126000	0,782623	4,999847
0,127000	0,787201	4,999847
0,128000	0,784149	4,999847
0,129000	0,785217	3,751526
0,130000	0,785980	3,762665
0,131000	0,783539	4,999847
0,132000	0,786743	4,999847
0,133000	0,782013	4,999847
0,134000	0,787506	4,999847
0,135000	0,780334	4,999847
0,136000	0,788116	4,999847
0,137000	0,779419	4,999847
0,138000	0,788422	4,999847
0,139000	0,780182	3,906097
0,140000	0,786438	4,176636
0,141000	0,781555	3,659210
0,142000	0,784149	3,786316
0,143000	0,782623	4,395599
0,144000	0,782623	4,999847
0,145000	0,782776	4,999847
0,146000	0,780487	4,999847
0,147000	0,783997	4,999847
0,148000	0,779114	4,708099
0,149000	0,784454	3,271790
0,150000	0,778503	3,490448
0,151000	0,785370	3,510437
0,152000	0,777283	4,999847
0,153000	0,784149	4,999847
0,154000	0,778503	4,999847
0,155000	0,782623	4,999847
0,156000	0,779572	4,999847
0,157000	0,780945	4,999847
0,158000	0,780487	4,999847
0,159000	0,779572	4,419098
0,160000	0,781250	2,707825
0,161000	0,778656	2,802429
0,162000	0,781555	3,881073
0,163000	0,777435	4,999847
0,164000	0,782013	4,999847
0,165000	0,776215	4,999847
0,166000	0,782013	4,999847
0,167000	0,776062	4,999847
0,168000	0,780640	4,792633
0,169000	0,776520	3,544464
0,170000	0,779419	2,108765
0,171000	0,777588	4,345856
0,172000	0,777435	4,924927
0,173000	0,778046	4,999847
0,174000	0,776520	4,999847
0,175000	0,778809	4,999847
0,176000	0,775604	4,999847
0,177000	0,779114	4,999847
0,178000	0,774994	4,999847
0,179000	0,779266	4,082184
0,180000	0,774231	3,695374
0,181000	0,779266	3,278656
0,182000	0,773010	4,999847
0,183000	0,774689	4,999847
0,184000	0,774078	4,999847
0,185000	0,776672	4,999847
0,186000	0,776215	4,999847
0,187000	0,775604	4,999847
0,188000	0,776520	4,999847
0,189000	0,775604	2,726135
0,190000	0,776825	3,677368
0,191000	0,774384	4,999847
0,192000	0,776672	4,999847
0,193000	0,773773	4,999847
0,194000	0,776978	4,999847
0,195000	0,773315	4,999847
0,196000	0,777130	4,999847
0,197000	0,773621	4,999847
0,198000	0,776215	4,999847
0,199000	0,774384	3,385620
0,200000	0,774994	4,566498
0,201000	0,774078	3,830566
0,202000	0,774078	4,661407
0,203000	0,775146	4,999847
0,204000	0,774078	4,999847
0,205000	0,775604	4,999847
0,206000	0,773010	4,999847
0,207000	0,776062	4,999847
0,208000	0,772552	4,735565
0,209000	0,775757	3,393250
0,210000	0,772095	4,159851
0,211000	0,774994	4,758301
0,212000	0,772858	4,640961
0,213000	0,774536	4,999847
0,214000	0,773621	4,999847
0,215000	0,773926	4,999847
0,216000	0,773926	4,999847
0,217000	0,772552	4,999847
0,218000	0,773773	4,823761
0,219000	0,772400	3,121490
0,220000	0,774231	1,617737
0,221000	0,771484	4,432678
0,222000	0,774231	4,818268
0,223000	0,771484	4,999847
0,224000	0,774078	4,999847
0,225000	0,771942	4,999847
0,226000	0,774078	4,999847
0,227000	0,772705	4,999847
0,228000	0,773315	4,999847
0,229000	0,772095	3,503265
0,230000	0,772552	2,624664
0,231000	0,772552	4,188995
0,232000	0,772247	4,774933
0,233000	0,773010	4,999847
0,234000	0,771484	4,999847
0,235000	0,772705	4,999847
0,236000	0,770874	4,999847
0,237000	0,773163	4,999847
0,238000	0,770721	4,999847
0,239000	0,773773	4,321899
0,240000	0,771179	4,519958
0,241000	0,773010	3,562164
0,242000	0,771179	4,433441
0,243000	0,772247	4,999847
0,244000	0,771332	4,999847
0,245000	0,771332	4,999847
0,246000	0,771484	4,999847
0,247000	0,771179	4,999847
0,248000	0,772095	4,999847
0,249000	0,770721	2,975616
0,250000	0,771637	2,694244
0,251000	0,770264	4,296875
0,252000	0,771942	4,999847
0,253000	0,769958	4,999847
0,254000	0,772247	4,999847
0,255000	0,770416	4,999847
0,256000	0,772400	4,999847
0,257000	0,771332	4,999847
0,258000	0,771332	4,999847
0,259000	0,771179	4,306641
0,260000	0,770721	4,022064
0,261000	0,771027	2,660828
0,262000	0,770569	4,572144
0,263000	0,771332	4,999847
0,264000	0,770264	4,999847
0,265000	0,771790	4,999847
0,266000	0,770111	4,999847
0,267000	0,771332	4,999847
0,268000	0,769806	4,558716
0,269000	0,771179	2,743378
0,270000	0,770416	4,999847
0,271000	0,771179	4,050598
0,272000	0,770416	4,999847
0,273000	0,770569	4,999847
0,274000	0,770416	4,999847
0,275000	0,769958	4,999847
0,276000	0,770569	4,999847
0,277000	0,769501	4,999847
0,278000	0,770416	4,999847
0,279000	0,769806	4,543610
0,280000	0,770569	3,003845
0,281000	0,769501	4,119568
0,282000	0,771790	3,998413
0,283000	0,770111	4,289703
0,284000	0,771027	4,999847
0,285000	0,769501	4,999847
0,286000	0,770416	4,999847
0,287000	0,769958	4,999847
0,288000	0,770264	4,164734
0,289000	0,770111	2,523651
0,290000	0,769806	2,862549
0,291000	0,770721	4,149628
0,292000	0,769806	4,999847
0,293000	0,770416	4,999847
0,294000	0,769348	4,999847
0,295000	0,770111	4,999847
0,296000	0,769806	4,999847
0,297000	0,771027	4,999847
0,298000	0,769501	4,999847
0,299000	0,770111	4,332733
0,300000	0,769348	3,756409
0,301000	0,769958	2,605896
0,302000	0,769806	4,642181
0,303000	0,769501	4,924469
0,304000	0,770111	4,999847
0,305000	0,769501	4,999847
0,306000	0,770264	4,999847
0,307000	0,769348	4,999847
0,308000	0,769958	4,999084
0,309000	0,768890	3,625641
0,310000	0,770264	3,172455
0,311000	0,768890	4,342804
0,312000	0,770111	4,999847
0,313000	0,769043	4,999847
0,314000	0,769958	4,999847
0,315000	0,769806	4,999847
0,316000	0,769653	4,999847
0,317000	0,769501	4,999847
0,318000	0,769806	4,135437
0,319000	0,769653	4,052582
0,320000	0,769043	3,865509
0,321000	0,769806	2,595673
0,322000	0,769196	4,999847
0,323000	0,769806	4,999847
0,324000	0,769348	4,999847
0,325000	0,770264	4,999847
0,326000	0,769501	4,999847
0,327000	0,769653	4,999847
0,328000	0,769501	4,676208
0,329000	0,769653	3,822479
0,330000	0,769348	3,369598
0,331000	0,769348	3,958740
0,332000	0,769348	4,999847
0,333000	0,769653	4,999847
0,334000	0,770569	4,999847
0,335000	0,770111	4,999847
0,336000	0,770264	4,999847
0,337000	0,769806	4,999847
0,338000	0,770721	4,355621
0,339000	0,770721	3,791199
0,340000	0,770569	3,812256
0,341000	0,770721	2,793884
0,342000	0,770569	4,999847
0,343000	0,770569	4,999847
0,344000	0,770416	4,999847
0,345000	0,770721	4,999847
0,346000	0,770111	4,999847
0,347000	0,770721	4,999847
0,348000	0,770569	4,927673
0,349000	0,770569	3,468628
0,350000	0,770569	2,918243
0,351000	0,773010	4,643097
0,352000	0,786896	4,999847
0,353000	0,800781	4,999847
0,354000	0,800323	4,999847
0,355000	0,805817	4,999847
0,356000	0,802460	4,999847
0,357000	0,805511	4,999847
0,358000	0,804596	4,999847
0,359000	0,805206	4,502869
0,360000	0,805511	3,491058
0,361000	0,803528	3,868713
0,362000	0,806122	4,598236
0,363000	0,802307	4,999847
0,364000	0,806580	4,999847
0,365000	0,800629	4,999847
0,366000	0,806732	4,999847
0,367000	0,799255	4,999847
0,368000	0,806274	4,146423
0,369000	0,800629	3,153687
0,370000	0,805054	2,642212
0,371000	0,801697	4,961243
0,372000	0,803375	4,999847
0,373000	0,802307	4,999847
0,374000	0,801697	4,999847
0,375000	0,803833	4,999847
0,376000	0,800018	4,999847
0,377000	0,804291	4,999847
0,378000	0,798645	4,999847
0,379000	0,803680	3,836975
0,380000	0,796814	3,143768
0,381000	0,805206	3,190765
0,382000	0,796661	4,999847
0,383000	0,804291	4,798584
0,384000	0,798187	4,999847
0,385000	0,802460	4,999847
0,386000	0,799255	4,999847
0,387000	0,787354	4,999847
0,388000	0,782928	4,925385
0,389000	0,791168	4,164276
0,390000	0,798492	2,416229
0,391000	0,795593	3,708344
0,392000	0,801849	4,999847
0,393000	0,796051	4,999847
0,394000	0,803986	4,999847
0,395000	0,793915	4,999847
0,396000	0,804596	4,999847
0,397000	0,794983	4,999847
0,398000	0,801697	4,999847
0,399000	0,795898	4,999847
0,400000	0,800018	3,236847
0,401000	0,798340	3,756714
0,402000	0,798187	4,613800
0,403000	0,799103	4,999847
0,404000	0,796356	4,999847
0,405000	0,800171	4,999847
0,406000	0,794525	4,999847
0,407000	0,801697	4,836884
0,408000	0,793152	4,234467
0,409000	0,802765	4,394989
0,410000	0,792236	2,506409
0,411000	0,802765	3,781891
0,412000	0,793304	4,999847
0,413000	0,800171	4,999847
0,414000	0,795441	4,999847
0,415000	0,798340	4,999847
0,416000	0,797424	4,999847
0,417000	0,796661	4,999847
0,418000	0,798798	4,999847
0,419000	0,794525	4,492187
0,420000	0,800476	4,369812
0,421000	0,793152	3,937988
0,422000	0,801239	4,236145
0,423000	0,791779	4,999847
0,424000	0,802460	4,999847
0,425000	0,790710	4,999847
0,426000	0,800934	4,999847
0,427000	0,792694	4,999847
0,428000	0,799103	4,999847
0,429000	0,794525	3,068695
0,430000	0,796814	1,964111
0,431000	0,796356	4,407654
0,432000	0,795135	4,999847
0,433000	0,798340	4,999847
0,434000	0,792847	4,999847
0,435000	0,800018	4,999847
0,436000	0,791168	4,999847
0,437000	0,800781	4,999847
0,438000	0,790405	4,999847
0,439000	0,801697	3,703613
0,440000	0,790253	3,495026
0,441000	0,799713	3,341522
0,442000	0,792847	4,878235
0,443000	0,797577	4,999847
0,444000	0,794678	4,999847
0,445000	0,795288	4,999847
0,446000	0,796204	4,999847
0,447000	0,792847	4,999847
0,448000	0,797882	4,821167
0,449000	0,791168	3,256683
0,450000	0,799255	3,040771
0,451000	0,789490	4,591217
0,452000	0,800171	4,963074
0,453000	0,788269	4,999847
0,454000	0,801086	4,999847
0,455000	0,789795	4,999847
0,456000	0,797729	4,999847
0,457000	0,791626	4,999847
0,458000	0,796356	4,951935
0,459000	0,794525	3,389282
0,460000	0,793762	3,712463
0,461000	0,796204	4,650116
0,462000	0,792084	3,922729
0,463000	0,797424	4,999847
0,464000	0,789948	4,999847
0,465000	0,798645	4,999847
0,466000	0,788116	4,999847
0,467000	0,799866	4,999847
0,468000	0,787048	4,194031
0,469000	0,799103	2,878876
0,470000	0,790100	2,350616
0,471000	0,796967	4,676361
0,472000	0,792236	4,999847
0,473000	0,794220	4,999847
0,474000	0,793915	4,999847
0,475000	0,791779	4,999847
0,476000	0,795746	4,999847
0,477000	0,790253	4,999847
0,478000	0,797272	4,999847
0,479000	0,788574	3,221283
0,480000	0,798645	2,709961
0,481000	0,786896	4,065399
0,482000	0,799866	4,028168
0,483000	0,787354	4,999847
0,484000	0,797577	4,999847
0,485000	0,789795	4,999847
0,486000	0,795441	4,999847
0,487000	0,791931	4,999847
0,488000	0,792999	4,999847
0,489000	0,783844	2,628937
0,490000	0,777130	3,748932
0,491000	0,786438	4,216156
0,492000	0,784607	4,999847
0,493000	0,794525	4,999847
0,494000	0,786438	4,999847
0,495000	0,797424	4,999847
0,496000	0,785522	4,999847
0,497000	0,798340	4,999847
0,498000	0,787201	4,999847
0,499000	0,795746	3,705750
0,500000	0,789337	4,759979
0,501000	0,793457	3,838348
0,502000	0,791473	4,818726
0,503000	0,791473	4,999847
0,504000	0,793304	4,999847
0,505000	0,789642	4,999847
0,506000	0,794830	4,999847
0,507000	0,787201	4,999847
0,508000	0,796204	4,209900
0,509000	0,785675	3,662720
0,510000	0,797577	3,791962
0,511000	0,784607	4,087830
0,512000	0,796661	4,616852
0,513000	0,787048	4,999847
0,514000	0,793915	4,999847
0,515000	0,789642	4,999847
0,516000	0,791473	4,999847
0,517000	0,790710	4,999847
0,518000	0,789490	4,625244
0,519000	0,792694	3,739166
0,520000	0,787659	3,141632
0,521000	0,793762	3,365173
0,522000	0,785675	4,300385
0,523000	0,795441	4,999847
0,524000	0,784607	4,999847
0,525000	0,796967	4,999847
0,526000	0,784302	4,999847
0,527000	0,794373	4,999847
0,528000	0,786896	4,934235
0,529000	0,791931	3,159332
0,530000	0,788727	3,727875
0,531000	0,789642	4,553223
0,532000	0,790558	4,999847
0,533000	0,787811	4,999847
0,534000	0,792236	4,999847
0,535000	0,786743	4,999847
0,536000	0,792999	4,999847
0,537000	0,784149	4,999847
0,538000	0,793915	4,999847
0,539000	0,782623	3,788910
0,540000	0,794373	4,053345
0,541000	0,783539	4,167938
0,542000	0,791626	3,807068
0,543000	0,785675	4,999847
0,544000	0,789490	4,999847
0,545000	0,787659	4,999847
0,546000	0,787506	4,999847
0,547000	0,789032	4,999847
0,548000	0,785522	4,242859
0,549000	0,790405	3,085937
0,550000	0,784149	2,360229
0,551000	0,791168	3,734741
0,552000	0,782318	4,999847
0,553000	0,791931	4,999847
0,554000	0,781555	4,999847
0,555000	0,791473	4,999847
0,556000	0,783234	4,999847
0,557000	0,788879	4,999847
0,558000	0,784302	4,999847
0,559000	0,785828	3,802032
0,560000	0,785675	3,190155
0,561000	0,784302	3,456879
0,562000	0,787354	3,665619
0,563000	0,782928	4,999847
0,564000	0,787811	4,999847
0,565000	0,781097	4,999847
0,566000	0,788879	4,999847
0,567000	0,780334	4,999847
0,568000	0,789337	4,149323
0,569000	0,780182	3,533325
0,570000	0,787811	2,061920
0,571000	0,781555	3,926697
0,572000	0,785675	4,999847
0,573000	0,783081	4,999847
0,574000	0,783539	4,999847
0,575000	0,783691	4,999847
0,576000	0,781708	4,999847
0,577000	0,784912	4,999847
0,578000	0,780334	4,999847
0,579000	0,785370	4,169617
0,580000	0,779724	3,109283
0,581000	0,785675	4,053040
0,582000	0,777893	4,989166
0,583000	0,785522	4,999847
0,584000	0,778809	4,999847
0,585000	0,783997	4,999847
0,586000	0,780182	4,999847
0,587000	0,782318	4,999847
0,588000	0,780640	4,460907
0,589000	0,780792	3,739624
0,590000	0,781555	4,305878
0,591000	0,779572	3,280640
0,592000	0,774078	4,766388
0,593000	0,771637	4,999847
0,594000	0,777740	4,999847
0,595000	0,774994	4,999847
0,596000	0,782013	4,999847
0,597000	0,775909	4,999847
0,598000	0,782623	4,445343
0,599000	0,777130	3,950195
0,600000	0,780182	4,784393
0,601000	0,777588	2,627258
0,602000	0,778961	4,368439
0,603000	0,778503	4,999847
0,604000	0,777893	4,999847
0,605000	0,778961	4,999847
0,606000	0,776978	4,999847
0,607000	0,779572	4,999847
0,608000	0,775909	4,102783
0,609000	0,779572	3,345642
0,610000	0,775604	2,804718
0,611000	0,779572	3,634338
0,612000	0,774994	4,999847
0,613000	0,778961	4,999847
0,614000	0,775604	4,999847
0,615000	0,777588	4,999847
0,616000	0,776367	4,999847
0,617000	0,777283	4,999847
0,618000	0,776825	4,731293
0,619000	0,775909	4,112549
0,620000	0,776825	4,383392
0,621000	0,775299	2,893524
0,622000	0,777283	4,398651
0,623000	0,774689	4,999847
0,624000	0,777588	4,999847
0,625000	0,773773	4,999847
0,626000	0,778198	4,999847
0,627000	0,774536	4,999847
0,628000	0,776672	4,504700
0,629000	0,774689	3,292084
0,630000	0,775604	2,262726
0,631000	0,774994	4,267120
0,632000	0,774994	4,999847
0,633000	0,775299	4,999847
0,634000	0,774536	4,999847
0,635000	0,776062	4,999847
0,636000	0,773773	4,999847
0,637000	0,775909	4,999847
0,638000	0,773315	4,241180
0,639000	0,776215	3,955078
0,640000	0,772247	3,683777
0,641000	0,775909	3,893127
0,642000	0,773468	4,819183
0,643000	0,775299	4,999847
0,644000	0,773468	4,999847
0,645000	0,773773	4,999847
0,646000	0,773315	4,999847
0,647000	0,773468	4,999847
0,648000	0,774231	4,817047
0,649000	0,773468	3,698730
0,650000	0,774689	3,482971
0,651000	0,772552	3,145447
0,652000	0,774689	4,999847
0,653000	0,771790	4,999847
0,654000	0,774689	4,999847
0,655000	0,771790	4,999847
0,656000	0,774078	4,999847
0,657000	0,772247	4,999847
0,658000	0,773163	4,999847
0,659000	0,772247	4,597168
0,660000	0,773163	4,647064
0,661000	0,773163	3,834381
0,662000	0,772400	4,463043
0,663000	0,773163	4,999847
0,664000	0,771942	4,999847
0,665000	0,773163	4,999847
0,666000	0,771484	4,999847
0,667000	0,773468	4,999847
0,668000	0,771027	4,999847
0,669000	0,774231	3,817749
0,670000	0,770874	3,850708
0,671000	0,772858	3,597565
0,672000	0,771637	4,999847
0,673000	0,772552	4,999847
0,674000	0,772247	4,999847
0,675000	0,771942	4,999847
0,676000	0,771942	4,999847
0,677000	0,771179	4,999847
0,678000	0,771942	4,903717
0,679000	0,770874	4,474640
0,680000	0,772400	3,241577
0,681000	0,771027	2,765808
0,682000	0,771942	4,999847
0,683000	0,769806	4,999847
0,684000	0,772552	4,999847
0,685000	0,770416	4,999847
0,686000	0,772552	4,999847
0,687000	0,770874	4,999847
0,688000	0,771484	4,159088
0,689000	0,771027	3,848267
0,690000	0,771332	4,215240
0,691000	0,771790	3,455811
0,692000	0,771179	4,999847
0,693000	0,771790	4,999847
0,694000	0,770721	4,999847
0,695000	0,771027	4,999847
0,696000	0,769806	4,999847
0,697000	0,771179	4,999847
0,698000	0,769806	4,718781
0,699000	0,772247	3,657837
0,700000	0,770264	4,092712
0,701000	0,771179	3,936615
0,702000	0,770569	4,540253
0,703000	0,771027	4,999847
0,704000	0,771027	4,999847
0,705000	0,769958	4,999847
0,706000	0,771179	4,999847
0,707000	0,770264	4,999847
0,708000	0,771637	4,494476
0,709000	0,770111	3,404846
0,710000	0,771484	0,993500
0,711000	0,769653	4,999847
0,712000	0,771332	4,876556
0,713000	0,769653	4,999847
0,714000	0,771332	4,999847
0,715000	0,770111	4,999847
0,716000	0,770721	4,999847
0,717000	0,770416	4,999847
0,718000	0,770416	4,999847
0,719000	0,770569	4,434509
0,720000	0,770569	2,754974
0,721000	0,771179	3,642883
0,722000	0,769958	4,816437
0,723000	0,770874	4,999847
0,724000	0,769653	4,999847
0,725000	0,770721	4,999847
0,726000	0,769196	4,999847
0,727000	0,770569	4,999847
0,728000	0,769196	4,999847
0,729000	0,770569	3,650818
0,730000	0,769958	3,048096
0,731000	0,770416	4,999847
0,732000	0,769348	4,999847
0,733000	0,770111	4,999847
0,734000	0,770111	4,999847
0,735000	0,769653	4,999847
0,736000	0,769806	4,999847
0,737000	0,769806	4,999847
0,738000	0,770264	4,999847
0,739000	0,769653	3,501892
0,740000	0,770416	2,655182
0,741000	0,768585	4,207306
0,742000	0,770111	4,247894
0,743000	0,769501	4,999847
0,744000	0,769958	4,999847
0,745000	0,769653	4,999847
0,746000	0,769806	4,999847
0,747000	0,769806	4,999847
0,748000	0,769501	4,553680
0,749000	0,769806	2,870026
0,750000	0,769501	3,049164
0,751000	0,769653	4,773254
0,752000	0,768738	4,362946
0,753000	0,769501	4,999847
0,754000	0,769043	4,999847
0,755000	0,769806	4,999847
0,756000	0,769501	4,999847
0,757000	0,770416	4,999847
0,758000	0,769348	4,999847
0,759000	0,769958	4,008636
0,760000	0,769348	4,224701
0,761000	0,769806	3,613281
0,762000	0,769501	4,824219
0,763000	0,769501	4,999847
0,764000	0,769806	4,999847
0,765000	0,769653	4,999847
0,766000	0,769958	4,999847
0,767000	0,770416	4,999847
0,768000	0,770416	4,153290
0,769000	0,770264	3,163147
0,770000	0,770416	2,735443
0,771000	0,770111	4,999847
0,772000	0,769958	4,113159
0,773000	0,770111	4,999847
0,774000	0,770416	4,999847
0,775000	0,770874	4,999847
0,776000	0,770569	4,999847
0,777000	0,770721	4,999847
0,778000	0,770416	4,999847
0,779000	0,770721	3,695374
0,780000	0,769806	4,892578
0,781000	0,769958	3,716583
0,782000	0,770111	3,563690
0,783000	0,770874	4,999847
0,784000	0,770569	4,999847
0,785000	0,770264	4,999847
0,786000	0,770569	4,999847
0,787000	0,770264	4,999847
0,788000	0,770721	4,699707
0,789000	0,777588	3,457489
0,790000	0,791779	2,569580
0,791000	0,801544	4,323883
0,792000	0,802460	4,739685
0,793000	0,804291	4,999847
0,794000	0,805359	4,999847
0,795000	0,803986	4,999847
0,796000	0,802612	4,999847
0,797000	0,785980	4,999847
0,798000	0,797577	4,999847
0,799000	0,797882	3,830414
0,800000	0,805359	3,254089
0,801000	0,799561	2,348633
0,802000	0,806580	4,715118
0,803000	0,800629	4,999847
0,804000	0,805969	4,999847
0,805000	0,801849	4,999847
0,806000	0,804291	4,999847
0,807000	0,802460	4,999847
0,808000	0,802307	4,665833
0,809000	0,803833	2,893066
0,810000	0,801086	4,686127
0,811000	0,804291	2,781525
0,812000	0,799408	4,999847
0,813000	0,804749	4,999847
0,814000	0,798340	4,999847
0,815000	0,805969	4,999847
0,816000	0,796967	4,999847
0,817000	0,804596	4,999847
0,818000	0,798187	4,396973
0,819000	0,802612	4,585266
0,820000	0,799408	4,288177
0,821000	0,801239	3,396454
0,822000	0,800629	4,857178
0,823000	0,799408	4,999847
0,824000	0,801544	4,999847
0,825000	0,797882	4,999847
0,826000	0,802765	4,999847
0,827000	0,796356	4,999847
0,828000	0,803680	4,516754
0,829000	0,794830	3,765869
0,830000	0,804901	2,914734
0,831000	0,794830	3,939819
0,832000	0,802917	4,999847
0,833000	0,796356	4,999847
0,834000	0,801086	4,999847
0,835000	0,798035	4,999847
0,836000	0,798798	4,999847
0,837000	0,799561	4,999847
0,838000	0,797424	4,999847
0,839000	0,800781	3,699188
0,840000	0,795593	3,351440
0,841000	0,801544	3,171844
0,842000	0,794373	4,552307
0,843000	0,803070	4,999847
0,844000	0,792999	4,999847
0,845000	0,803070	4,999847
0,846000	0,793457	4,999847
0,847000	0,800629	4,999847
0,848000	0,795746	4,626770
0,849000	0,797424	3,768463
0,850000	0,796204	3,314667
0,851000	0,796661	3,691711
0,852000	0,798340	4,999847
0,853000	0,795441	4,999847
0,854000	0,799561	4,999847
0,855000	0,793610	4,999847
0,856000	0,801392	4,999847
0,857000	0,791779	4,999847
0,858000	0,802612	4,223328
0,859000	0,790253	4,355469
0,860000	0,801697	4,999847
0,861000	0,792694	2,784424
0,862000	0,800018	4,294739
0,863000	0,794983	4,999847
0,864000	0,796814	4,999847
0,865000	0,796051	4,999847
0,866000	0,794983	4,999847
0,867000	0,797424	4,999847
0,868000	0,792847	3,550262
0,869000	0,799103	3,637390
0,870000	0,791473	3,709106
0,871000	0,800476	4,771271
0,872000	0,789948	4,999847
0,873000	0,801544	4,999847
0,874000	0,789795	4,999847
0,875000	0,800323	4,999847
0,876000	0,791931	4,999847
0,877000	0,797729	4,999847
0,878000	0,794525	4,639587
0,879000	0,795746	4,417114
0,880000	0,796051	2,462921
0,881000	0,793610	3,417969
0,882000	0,797424	4,800873
0,883000	0,792084	4,999847
0,884000	0,799255	4,999847
0,885000	0,790100	4,999847
0,886000	0,799866	4,999847
0,887000	0,788422	4,999847
0,888000	0,800629	4,972687
0,889000	0,789490	3,135834
0,890000	0,798035	3,745117
0,891000	0,789948	2,917023
0,892000	0,795135	4,999847
0,893000	0,793304	4,999847
0,894000	0,794525	4,999847
0,895000	0,795746	4,999847
0,896000	0,792236	4,999847
0,897000	0,796967	4,999847
0,898000	0,790253	4,999847
0,899000	0,779572	4,356689
0,900000	0,776367	4,080963
0,901000	0,795135	3,044739
0,902000	0,784302	4,988098
0,903000	0,798187	4,999847
0,904000	0,788574	4,999847
0,905000	0,796967	4,999847
0,906000	0,791321	4,999847
0,907000	0,794830	4,999847
0,908000	0,793762	4,241180
0,909000	0,792847	4,253387
0,910000	0,795746	2,886353
0,911000	0,790863	4,248810
0,912000	0,797272	4,999847
0,913000	0,789032	4,999847
0,914000	0,798950	4,999847
0,915000	0,787506	4,999847
0,916000	0,800171	4,999847
0,917000	0,786896	4,999847
0,918000	0,797272	4,257050
0,919000	0,789185	4,413147
0,920000	0,795441	4,432678
0,921000	0,791321	2,640228
0,922000	0,793762	4,065247
0,923000	0,793610	4,999847
0,924000	0,791473	4,999847
0,925000	0,795288	4,999847
0,926000	0,789185	4,999847
0,927000	0,796967	4,999847
0,928000	0,787048	3,875275
0,929000	0,797882	3,937988
0,930000	0,785828	2,173004
0,931000	0,798798	4,999847
0,932000	0,786591	4,290314
0,933000	0,796661	4,999847
0,934000	0,789795	4,999847
0,935000	0,794220	4,999847
0,936000	0,791626	4,999847
0,937000	0,791779	4,999847
0,938000	0,793610	4,647064
0,939000	0,789795	4,346466
0,940000	0,794830	1,218567
0,941000	0,787659	4,736328
0,942000	0,796509	4,882965
0,943000	0,786285	4,999847
0,944000	0,798035	4,999847
0,945000	0,784607	4,999847
0,946000	0,797272	4,999847
0,947000	0,787201	4,999847
0,948000	0,794678	4,592743
0,949000	0,788727	3,801727
0,950000	0,792694	4,092255
0,951000	0,790863	3,226013
0,952000	0,790405	4,572906
0,953000	0,792999	4,999847
0,954000	0,788116	4,999847
0,955000	0,794525	4,999847
0,956000	0,786591	4,999847
0,957000	0,795898	4,999847
0,958000	0,784454	4,999542
0,959000	0,796661	4,358978
0,960000	0,784149	2,926636
0,961000	0,794983	4,317627
0,962000	0,786285	4,811554
0,963000	0,792542	4,999847
0,964000	0,788727	4,999847
0,965000	0,790100	4,999847
0,966000	0,789795	4,999847
0,967000	0,788116	4,999847
0,968000	0,791473	4,999847
0,969000	0,786438	2,817841
0,970000	0,792999	1,978912
0,971000	0,784760	4,539642
0,972000	0,794373	4,999847
0,973000	0,783386	4,999847
0,974000	0,795288	4,999847
0,975000	0,783844	4,999847
0,976000	0,792999	4,999847
0,977000	0,786285	4,999847
0,978000	0,790863	4,999847
0,979000	0,787659	3,931427
0,980000	0,788116	4,999847
0,981000	0,788574	3,556366
0,982000	0,786133	4,211578
0,983000	0,790405	4,846344
0,984000	0,784607	4,999847
0,985000	0,791168	4,999847
0,986000	0,782776	4,999847
0,987000	0,792389	4,999847
0,988000	0,781555	4,830322
0,989000	0,791779	3,190460
0,990000	0,782928	1,726532
0,991000	0,789642	4,965515
0,992000	0,784454	4,441376
0,993000	0,788269	4,999847
0,994000	0,786591	4,999847
0,995000	0,785370	4,999847
0,996000	0,787506	4,999847
0,997000	0,784149	4,999847
0,998000	0,788727	4,999847
0,999000	0,782166	3,579254

