LabVIEW Measurement	
Writer_Version	2
Reader_Version	2
Separator	Tab
Decimal_Separator	,
Multi_Headings	Yes
X_Columns	One
Time_Pref	Absolute
Operator	d.nicolai
Date	2023/11/09
Time	15:52:34,4435127999997708487
***End_of_Header***	
	
Channels	2		
Samples	1000	1000	
Date	2023/11/09	2023/11/09	
Time	15:52:41,809514799999581335	15:52:41,809514799999581335	
Y_Unit_Label	Volts	Volts	
X_Dimension	Time	Time	
X0	0,0000000000000000E+0	0,0000000000000000E+0	
Delta_X	0,001000	0,001000	
***End_of_Header***			
X_Value	powebox	triggerbox	Comment
0,000000	1,039581	0,921631
0,001000	1,016846	4,365234
0,002000	1,033936	4,999847
0,003000	1,028900	4,999847
0,004000	1,028595	4,999847
0,005000	1,040039	4,999847
0,006000	1,023407	4,999847
0,007000	1,051941	4,999847
0,008000	1,018982	4,999847
0,009000	1,062775	3,752899
0,010000	1,014099	2,533417
0,011000	1,073303	3,796997
0,012000	1,011200	2,797089
0,013000	1,073303	4,490051
0,014000	1,025543	4,999847
0,015000	1,063538	4,999847
0,016000	1,040497	4,999847
0,017000	1,055145	4,999847
0,018000	1,054840	4,999847
0,019000	1,047974	3,489075
0,020000	1,069031	1,205750
0,021000	1,040649	4,660492
0,022000	1,082611	4,999847
0,023000	1,034393	4,999847
0,024000	1,095276	4,999847
0,025000	1,027985	4,999847
0,026000	1,107483	4,999847
0,027000	1,029968	4,999847
0,028000	1,098633	4,999847
0,029000	1,048889	4,100494
0,030000	1,087189	2,651215
0,031000	1,066742	3,161621
0,032000	1,076355	3,463593
0,033000	1,084290	4,999847
0,034000	1,067200	4,999847
0,035000	1,100769	4,999847
0,036000	1,057739	4,999847
0,037000	1,116180	4,999847
0,038000	1,049194	4,217377
0,039000	1,130676	3,130493
0,040000	1,042328	2,536011
0,041000	1,139832	4,162903
0,042000	1,053162	4,417572
0,043000	1,124420	4,999847
0,044000	1,075439	4,999847
0,045000	1,109924	4,999847
0,046000	1,095886	4,999847
0,047000	1,096649	4,999847
0,048000	1,115723	4,537201
0,049000	1,085052	3,919373
0,050000	1,134033	4,624786
0,051000	1,074066	3,522034
0,052000	1,151428	2,691345
0,053000	1,063690	4,766846
0,054000	1,168060	4,999847
0,055000	1,055908	4,999847
0,056000	1,166534	4,999847
0,057000	1,078186	4,999847
0,058000	1,147919	4,359436
0,059000	1,103516	2,990417
0,060000	1,130981	3,141022
0,061000	1,127014	3,973083
0,062000	1,115723	4,683685
0,063000	1,148529	4,999847
0,064000	1,101532	4,999847
0,065000	1,169128	4,999847
0,066000	1,089172	4,999847
0,067000	1,188049	4,999847
0,068000	1,076965	4,776001
0,069000	1,205597	4,999847
0,070000	1,076660	2,902374
0,071000	1,191101	4,743500
0,072000	1,105957	3,240509
0,073000	1,169891	4,999847
0,074000	1,133728	4,999847
0,075000	1,150818	4,999847
0,076000	1,159363	4,999847
0,077000	1,092987	4,999847
0,078000	1,114807	4,686890
0,079000	1,041260	2,418213
0,080000	1,101379	2,600098
0,081000	1,039429	4,618225
0,082000	1,199646	4,999847
0,083000	1,080170	4,999847
0,084000	1,235504	4,999847
0,085000	1,102600	4,999847
0,086000	1,214752	4,999847
0,087000	1,136780	4,999847
0,088000	1,191711	4,999847
0,089000	1,167450	3,951263
0,090000	1,170959	2,742920
0,091000	1,195068	4,001770
0,092000	1,151733	3,683777
0,093000	1,221008	4,999847
0,094000	1,134491	4,999847
0,095000	1,244812	4,999847
0,096000	1,118622	4,999847
0,097000	1,267090	4,999847
0,098000	1,104889	4,205780
0,099000	1,266479	2,998047
0,100000	1,135101	2,999268
0,101000	1,238098	4,493713
0,102000	1,170197	4,999847
0,103000	1,212769	4,999847
0,104000	1,202240	4,999847
0,105000	1,188660	4,999847
0,106000	1,232147	4,999847
0,107000	1,168365	4,999847
0,108000	1,259766	4,999847
0,109000	1,149902	4,275665
0,110000	1,284943	2,764740
0,111000	1,132050	4,841461
0,112000	1,308136	3,060455
0,113000	1,128387	4,967041
0,114000	1,290283	4,999847
0,115000	1,167908	4,999847
0,116000	1,259613	4,999847
0,117000	1,205750	4,999847
0,118000	1,231232	4,517975
0,119000	1,238861	3,392639
0,120000	1,206665	2,433929
0,121000	1,271057	4,380798
0,122000	1,184998	4,999847
0,123000	1,299744	4,999847
0,124000	1,165161	4,999847
0,125000	1,326599	4,999847
0,126000	1,147308	4,999847
0,127000	1,345825	4,999847
0,128000	1,161194	4,754181
0,129000	1,312866	4,549713
0,130000	1,204224	3,062439
0,131000	1,280060	4,999847
0,132000	1,243591	4,297028
0,133000	1,251678	4,951324
0,134000	1,279602	4,999847
0,135000	1,226044	4,999847
0,136000	1,312408	4,999847
0,137000	1,202545	4,999847
0,138000	1,342621	4,118042
0,139000	1,181183	3,182068
0,140000	1,369934	4,201050
0,141000	1,162872	4,145203
0,142000	1,371307	4,999847
0,143000	1,198120	4,999847
0,144000	1,334381	4,999847
0,145000	1,242676	4,999847
0,146000	1,300812	4,999847
0,147000	1,283569	4,999847
0,148000	1,270905	4,999847
0,149000	1,321259	3,916473
0,150000	1,243896	1,929321
0,151000	1,354980	3,729553
0,152000	1,219940	3,109741
0,153000	1,386108	4,999847
0,154000	1,199036	4,999847
0,155000	1,414642	4,999847
0,156000	1,188965	4,999847
0,157000	1,394348	4,999847
0,158000	1,237793	4,999847
0,159000	1,355896	3,375092
0,160000	1,283875	3,537750
0,161000	1,320801	4,179535
0,162000	1,325836	4,999847
0,163000	1,290894	4,999847
0,164000	1,364594	4,999847
0,165000	1,263275	4,999847
0,166000	1,399078	4,999847
0,167000	1,238556	4,962769
0,168000	1,431427	4,999847
0,169000	1,217346	4,501343
0,170000	1,456604	3,699646
0,171000	1,229248	3,552094
0,172000	1,417084	3,758240
0,173000	1,281433	4,999847
0,174000	1,378326	4,999847
0,175000	1,328888	4,999847
0,176000	1,343384	4,999847
0,177000	1,371002	4,999847
0,178000	1,311798	4,591980
0,179000	1,410217	3,257751
0,180000	1,208038	4,624634
0,181000	1,391144	3,398437
0,182000	1,237335	4,989319
0,183000	1,468964	4,999847
0,184000	1,235046	4,999847
0,185000	1,483002	4,999847
0,186000	1,275177	4,999847
0,187000	1,440735	4,999847
0,188000	1,329041	4,999847
0,189000	1,401520	4,709778
0,190000	1,376801	3,769226
0,191000	1,366730	3,324585
0,192000	1,420288	3,313446
0,193000	1,336365	4,940338
0,194000	1,459656	4,999847
0,195000	1,309509	4,999847
0,196000	1,496124	4,999847
0,197000	1,285706	4,999847
0,198000	1,529999	4,680023
0,199000	1,272736	3,320465
0,200000	1,511078	2,313690
0,201000	1,327820	4,712982
0,202000	1,467285	4,104462
0,203000	1,381226	4,999847
0,204000	1,428375	4,999847
0,205000	1,428986	4,999847
0,206000	1,394653	4,999847
0,207000	1,472931	4,999847
0,208000	1,364288	4,999847
0,209000	1,512146	3,984833
0,210000	1,338043	2,574768
0,211000	1,548309	4,868622
0,212000	1,315308	3,372498
0,213000	1,579437	4,999847
0,214000	1,325073	4,999847
0,215000	1,537781	4,999847
0,216000	1,383362	4,999847
0,217000	1,495667	4,999847
0,218000	1,436462	4,999847
0,219000	1,457825	3,625031
0,220000	1,484375	2,286835
0,221000	1,424713	4,627533
0,222000	1,528015	4,307861
0,223000	1,396027	4,999847
0,224000	1,567383	4,999847
0,225000	1,370697	4,999847
0,226000	1,603241	4,999847
0,227000	1,348419	4,999847
0,228000	1,613312	4,999847
0,229000	1,384277	4,147186
0,230000	1,567230	3,170319
0,231000	1,442413	4,667053
0,232000	1,526031	3,145447
0,233000	1,495209	4,999847
0,234000	1,490479	4,999847
0,235000	1,542511	4,999847
0,236000	1,458588	4,999847
0,237000	1,585541	4,999847
0,238000	1,431122	4,878082
0,239000	1,624298	3,580475
0,240000	1,407471	3,282013
0,241000	1,660309	4,894104
0,242000	1,390686	4,999847
0,243000	1,645203	4,999847
0,244000	1,448212	4,999847
0,245000	1,599884	4,999847
0,246000	1,504517	4,999847
0,247000	1,560059	4,999847
0,248000	1,556549	4,999847
0,249000	1,525726	3,860321
0,250000	1,602631	3,409729
0,251000	1,494904	4,827881
0,252000	1,644592	3,945770
0,253000	1,468506	4,999847
0,254000	1,682892	4,999847
0,255000	1,446381	4,999847
0,256000	1,717072	4,999847
0,257000	1,451569	4,999847
0,258000	1,676788	4,999847
0,259000	1,512756	2,839661
0,260000	1,633911	3,163452
0,261000	1,568298	3,872528
0,262000	1,595459	4,653168
0,263000	1,617889	4,999847
0,264000	1,562042	4,999847
0,265000	1,663971	4,999847
0,266000	1,533508	4,999847
0,267000	1,704559	4,999847
0,268000	1,508789	4,711151
0,269000	1,742096	3,155518
0,270000	1,486359	2,864227
0,271000	1,755829	4,490662
0,272000	1,517792	3,070068
0,273000	1,710510	4,999847
0,274000	1,577759	4,999847
0,275000	1,668854	4,999847
0,276000	1,631470	4,999847
0,277000	1,632080	4,999847
0,278000	1,680450	4,582977
0,279000	1,600342	3,746643
0,280000	1,725006	3,762970
0,281000	1,572876	3,610077
0,282000	1,703186	4,999847
0,283000	1,518097	4,999847
0,284000	1,787872	4,999847
0,285000	1,523590	4,999847
0,286000	1,787567	4,999847
0,287000	1,584015	4,999847
0,288000	1,744232	4,999847
0,289000	1,643372	4,238586
0,290000	1,704559	3,416901
0,291000	1,695557	4,999847
0,292000	1,669617	3,493652
0,293000	1,743317	4,999847
0,294000	1,639404	4,999847
0,295000	1,786194	4,999847
0,296000	1,612701	4,999847
0,297000	1,825104	4,999847
0,298000	1,590271	4,478760
0,299000	1,860809	3,119202
0,300000	1,591034	3,128967
0,301000	1,824493	3,960724
0,302000	1,652527	4,999847
0,303000	1,781006	4,999847
0,304000	1,709137	4,999847
0,305000	1,743011	4,999847
0,306000	1,760406	4,999847
0,307000	1,710052	4,999847
0,308000	1,806793	4,460449
0,309000	1,681824	4,834595
0,310000	1,848145	4,674072
0,311000	1,656647	3,653107
0,312000	1,887360	3,366241
0,313000	1,635132	4,986877
0,314000	1,909943	4,999847
0,315000	1,661682	4,999847
0,316000	1,866302	4,999847
0,317000	1,722565	4,999847
0,318000	1,825256	4,587860
0,319000	1,777496	3,222961
0,320000	1,789246	3,868103
0,321000	1,827545	3,851166
0,322000	1,757812	4,999847
0,323000	1,872711	4,999847
0,324000	1,730347	4,999847
0,325000	1,915741	4,999847
0,326000	1,706543	4,999847
0,327000	1,957855	4,999847
0,328000	1,685791	4,999847
0,329000	1,957092	4,673309
0,330000	1,737518	4,718781
0,331000	1,916199	3,482819
0,332000	1,796417	4,648743
0,333000	1,878662	4,999847
0,334000	1,849213	4,999847
0,335000	1,844330	4,999847
0,336000	1,898499	4,999847
0,337000	1,813507	4,999847
0,338000	1,945953	4,703674
0,339000	1,786957	4,287720
0,340000	1,991882	3,699341
0,341000	1,763763	4,066162
0,342000	2,036133	4,999847
0,343000	1,758728	4,999847
0,344000	2,012024	4,999847
0,345000	1,819000	4,999847
0,346000	1,974182	4,999847
0,347000	1,876221	4,999847
0,348000	1,940613	4,999847
0,349000	1,929626	3,730774
0,350000	1,908875	3,470001
0,351000	1,981201	4,214630
0,352000	1,880798	3,222046
0,353000	2,031403	4,999847
0,354000	1,854858	4,999847
0,355000	2,079315	4,999847
0,356000	1,831665	4,999847
0,357000	1,813354	4,999847
0,358000	1,813507	4,961243
0,359000	1,813812	4,212494
0,360000	2,004547	2,409363
0,361000	1,924591	3,711090
0,362000	2,053986	4,999847
0,363000	1,897583	4,999847
0,364000	2,102509	4,999847
0,365000	1,873322	4,999847
0,366000	2,147827	4,999847
0,367000	1,870422	4,999847
0,368000	2,118988	4,999847
0,369000	1,931000	4,608765
0,370000	2,081909	3,710937
0,371000	1,990051	4,345093
0,372000	2,048340	4,010162
0,373000	2,046051	4,999847
0,374000	2,016907	4,999847
0,375000	2,098694	4,999847
0,376000	1,987152	4,999847
0,377000	2,147217	4,999847
0,378000	1,959991	4,623871
0,379000	2,187958	4,292755
0,380000	1,934509	3,950958
0,381000	2,200012	3,682709
0,382000	1,954193	4,999847
0,383000	2,153320	4,999847
0,384000	1,987915	4,999847
0,385000	2,038727	4,999847
0,386000	1,952209	4,999847
0,387000	1,980133	4,999847
0,388000	2,051239	4,999847
0,389000	2,030182	3,945312
0,390000	2,159729	3,101044
0,391000	2,014923	2,914276
0,392000	2,205353	3,663330
0,393000	1,989136	4,999847
0,394000	2,227783	4,999847
0,395000	1,964417	4,999847
0,396000	2,201691	4,999847
0,397000	2,013397	4,999847
0,398000	2,156067	4,999847
0,399000	2,073669	3,860779
0,400000	2,122040	2,977600
0,401000	2,131195	4,412231
0,402000	2,090912	4,768524
0,403000	1,895142	4,999847
0,404000	1,779480	4,999847
0,405000	1,728973	4,999847
0,406000	1,707001	4,999847
0,407000	1,697998	4,999847
0,408000	1,694489	4,999847
0,409000	1,692505	4,198151
0,410000	1,691437	1,842499
0,411000	1,690826	4,363708
0,412000	1,691132	3,345795
0,413000	1,690674	4,999847
0,414000	1,691132	4,999847
0,415000	1,691132	4,999847
0,416000	1,690674	4,999847
0,417000	1,690521	4,999847
0,418000	1,690521	4,999847
0,419000	1,690369	3,953094
0,420000	1,690521	3,788452
0,421000	1,690674	3,016510
0,422000	1,690674	4,131927
0,423000	1,689758	4,999847
0,424000	1,359558	4,999847
0,425000	1,139679	4,999847
0,426000	1,084747	4,999847
0,427000	1,018066	4,999847
0,428000	1,042328	4,999847
0,429000	0,997772	4,234619
0,430000	1,032410	3,354187
0,431000	1,003723	4,061432
0,432000	1,026306	3,552704
0,433000	1,013947	4,999847
0,434000	1,021729	4,999847
0,435000	1,024628	4,999847
0,436000	1,017151	4,999847
0,437000	1,034393	4,910278
0,438000	1,013184	4,999847
0,439000	1,044464	3,241577
0,440000	1,009216	2,572784
0,441000	1,054077	4,194641
0,442000	1,005707	4,336853
0,443000	1,063232	4,999847
0,444000	1,010590	4,999847
0,445000	1,056366	4,999847
0,446000	1,024628	4,999847
0,447000	1,049042	4,999847
0,448000	1,038361	4,999847
0,449000	1,042175	4,131927
0,450000	1,051331	2,743225
0,451000	1,035767	4,840698
0,452000	1,063843	2,801971
0,453000	1,029816	4,999847
0,454000	1,075897	4,999847
0,455000	1,024628	4,999847
0,456000	1,087341	4,999847
0,457000	1,019287	4,999847
0,458000	1,091156	4,410248
0,459000	1,031189	3,057861
0,460000	1,080322	3,678741
0,461000	1,048126	4,351044
0,462000	1,070709	4,818878
0,463000	1,064148	4,999847
0,464000	1,061249	4,999847
0,465000	1,079712	4,999847
0,466000	1,052704	4,999847
0,467000	1,094666	4,999847
0,468000	1,045074	4,861450
0,469000	1,109161	4,321899
0,470000	1,038055	2,110443
0,471000	1,122894	4,767914
0,472000	1,034851	4,323425
0,473000	1,118927	4,999847
0,474000	1,054993	4,999847
0,475000	1,105194	4,999847
0,476000	1,075592	4,999847
0,477000	1,092987	4,999847
0,478000	1,094360	4,361877
0,479000	1,081390	2,974396
0,480000	1,112823	2,699127
0,481000	1,070862	4,715424
0,482000	1,129456	4,892578
0,483000	1,060791	4,999847
0,484000	1,145020	4,999847
0,485000	1,051941	4,999847
0,486000	1,159210	4,999847
0,487000	0,997467	4,999847
0,488000	1,066284	4,999847
0,489000	1,034241	4,211731
0,490000	1,108246	3,011627
0,491000	1,096191	4,600983
0,492000	1,109772	3,368988
0,493000	1,124115	4,999847
0,494000	1,098480	4,999847
0,495000	1,145935	4,999847
0,496000	1,086731	4,999847
0,497000	1,164551	4,999847
0,498000	1,076202	4,896240
0,499000	1,182404	4,105377
0,500000	1,065674	4,718170
0,501000	1,188507	3,336029
0,502000	1,082916	4,725494
0,503000	1,168060	4,999847
0,504000	1,110229	4,999847
0,505000	1,149445	4,999847
0,506000	1,135712	4,999847
0,507000	1,131897	4,999847
0,508000	1,158905	4,999847
0,509000	1,116638	3,805847
0,510000	1,181030	3,829498
0,511000	1,101990	4,079132
0,512000	1,201477	3,541718
0,513000	1,089630	4,999847
0,514000	1,220551	4,999847
0,515000	1,081390	4,999847
0,516000	1,214142	4,999847
0,517000	1,111145	4,999847
0,518000	1,190491	3,934326
0,519000	1,141357	3,229828
0,520000	1,169434	4,671021
0,521000	1,168976	3,260040
0,522000	1,150818	4,243011
0,523000	1,194153	4,999847
0,524000	1,133118	4,999847
0,525000	1,218414	4,999847
0,526000	1,117706	4,999847
0,527000	1,240387	4,999847
0,528000	1,103210	4,603271
0,529000	1,260986	4,487610
0,530000	1,107941	3,621674
0,531000	1,238556	3,224335
0,532000	1,142273	4,177856
0,533000	1,212921	4,999847
0,534000	1,174774	4,999847
0,535000	1,189270	4,999847
0,536000	1,204529	4,999847
0,537000	1,168365	4,999847
0,538000	1,231995	4,591980
0,539000	1,149597	3,471985
0,540000	1,257477	4,075775
0,541000	1,132660	2,853546
0,542000	1,280975	4,799805
0,543000	1,117401	4,999847
0,544000	1,290741	4,999847
0,545000	1,138153	4,999847
0,546000	1,261444	4,999847
0,547000	1,175995	4,999847
0,548000	1,233673	4,921875
0,549000	1,210632	4,590149
0,550000	1,208801	3,677826
0,551000	1,241455	4,681549
0,552000	1,186066	3,839874
0,553000	1,270752	4,999847
0,554000	1,165771	4,999847
0,555000	1,298370	4,999847
0,556000	1,147308	4,999847
0,557000	1,323090	4,999847
0,558000	1,133575	4,365082
0,559000	1,315918	3,932495
0,560000	1,172028	4,488678
0,561000	1,282959	4,113770
0,562000	1,211700	4,999847
0,563000	1,253357	4,999847
0,564000	1,247864	4,999847
0,565000	1,226654	4,999847
0,566000	1,281433	4,999847
0,567000	1,203003	4,999847
0,568000	1,312561	4,305420
0,569000	1,182251	3,674469
0,570000	1,340332	2,858124
0,571000	1,162567	3,555603
0,572000	1,365967	4,154663
0,573000	1,163788	4,999847
0,574000	1,338959	4,999847
0,575000	1,208801	4,999847
0,576000	1,304321	4,999847
0,577000	1,250305	4,999847
0,578000	1,273346	4,671326
0,579000	1,288147	4,300232
0,580000	1,245575	4,196625
0,581000	1,322784	3,874664
0,582000	1,220551	4,999847
0,583000	1,354370	4,999847
0,584000	1,198425	4,999847
0,585000	1,383820	4,999847
0,586000	1,179352	4,999847
0,587000	1,399078	4,999847
0,588000	1,201172	4,999847
0,589000	1,316986	4,496765
0,590000	1,218109	2,575836
0,591000	1,311798	4,174347
0,592000	1,284943	3,442841
0,593000	1,290436	4,999847
0,594000	1,328735	4,999847
0,595000	1,263733	4,999847
0,596000	1,365204	4,999847
0,597000	1,238708	4,999847
0,598000	1,398315	4,256439
0,599000	1,216431	3,623352
0,600000	1,428680	2,595215
0,601000	1,196899	4,411316
0,602000	1,422577	4,893036
0,603000	1,241455	4,999847
0,604000	1,382141	4,999847
0,605000	1,289978	4,999847
0,606000	1,345673	4,999847
0,607000	1,334534	4,999847
0,608000	1,313477	4,631805
0,609000	1,374969	4,999847
0,610000	1,284943	3,728943
0,611000	1,411743	3,863373
0,612000	1,259308	4,354706
0,613000	1,445160	4,600677
0,614000	1,237183	4,999847
0,615000	1,475983	4,999847
0,616000	1,234589	4,999847
0,617000	1,446686	4,999847
0,618000	1,287689	4,999847
0,619000	1,405487	4,353180
0,620000	1,336975	3,189850
0,621000	1,369476	3,333435
0,622000	1,382141	4,610138
0,623000	1,336823	4,999847
0,624000	1,422577	4,999847
0,625000	1,308289	4,999847
0,626000	1,460114	4,999847
0,627000	1,282959	4,999847
0,628000	1,494141	4,903870
0,629000	1,260834	4,999847
0,630000	1,515198	3,012848
0,631000	1,281891	4,327698
0,632000	1,471863	2,810516
0,633000	1,337280	4,999847
0,634000	1,431122	4,999847
0,635000	1,387177	4,999847
0,636000	1,394501	4,999847
0,637000	1,432648	4,999847
0,638000	1,362457	4,999847
0,639000	1,474152	4,024048
0,640000	1,334534	3,758850
0,641000	1,511230	3,207855
0,642000	1,310272	4,999847
0,643000	1,545563	4,999847
0,644000	1,287994	4,999847
0,645000	1,543274	4,999847
0,646000	1,335449	4,999847
0,647000	1,498260	4,999847
0,648000	1,391144	4,999847
0,649000	1,458282	3,739319
0,650000	1,440887	3,459015
0,651000	1,422882	4,999847
0,652000	1,486511	2,809143
0,653000	1,391907	4,999847
0,654000	1,527252	4,999847
0,655000	1,364899	4,999847
0,656000	1,564941	4,999847
0,657000	1,341400	4,999847
0,658000	1,598969	4,510498
0,659000	1,334991	3,318176
0,660000	1,571808	2,968903
0,661000	1,393738	3,117218
0,662000	1,528320	4,999847
0,663000	1,448669	4,999847
0,664000	1,488953	4,999847
0,665000	1,498108	4,999847
0,666000	1,454620	4,999847
0,667000	1,542969	4,999847
0,668000	1,425018	4,999847
0,669000	1,583405	4,337158
0,670000	1,398926	4,509277
0,671000	1,621246	4,534760
0,672000	1,376953	3,329315
0,673000	1,647491	4,999847
0,674000	1,395721	4,999847
0,675000	1,601868	4,999847
0,676000	1,454773	4,999847
0,677000	1,559753	4,999847
0,678000	1,508636	4,645996
0,679000	1,522064	3,094482
0,680000	1,557465	3,459320
0,681000	1,490173	4,103394
0,682000	1,602325	4,999847
0,683000	1,461334	4,999847
0,684000	1,641846	4,999847
0,685000	1,436310	4,999847
0,686000	1,678314	4,999847
0,687000	1,414948	4,999847
0,688000	1,680450	4,811707
0,689000	1,460114	4,025421
0,690000	1,634064	3,376770
0,691000	1,518097	4,226837
0,692000	1,513977	3,196259
0,693000	1,510162	4,999847
0,694000	1,532288	4,999847
0,695000	1,607666	4,999847
0,696000	1,522064	4,999847
0,697000	1,659851	4,999847
0,698000	1,498871	4,767456
0,699000	1,700439	3,925781
0,700000	1,475983	2,824554
0,701000	1,735992	4,353333
0,702000	1,465302	4,628754
0,703000	1,712341	4,999847
0,704000	1,525269	4,999847
0,705000	1,667938	4,999847
0,706000	1,582489	4,999847
0,707000	1,628571	4,999847
0,708000	1,633301	4,999847
0,709000	1,594696	3,758698
0,710000	1,679993	3,935089
0,711000	1,564789	4,201965
0,712000	1,721802	3,348083
0,713000	1,539307	4,999847
0,714000	1,760406	4,999847
0,715000	1,516724	4,999847
0,716000	1,790009	4,999847
0,717000	1,529999	4,999847
0,718000	1,745605	4,718628
0,719000	1,591339	2,994995
0,720000	1,702881	3,861084
0,721000	1,646729	2,489166
0,722000	1,665344	4,999847
0,723000	1,696167	4,999847
0,724000	1,631470	4,999847
0,725000	1,740570	4,999847
0,726000	1,602631	4,999847
0,727000	1,782532	4,999847
0,728000	1,579285	4,999847
0,729000	1,818848	4,962921
0,730000	1,557770	3,771667
0,731000	1,824799	4,500275
0,732000	1,596069	3,732147
0,733000	1,778259	4,999847
0,734000	1,656036	4,999847
0,735000	1,737213	4,999847
0,736000	1,709747	4,999847
0,737000	1,701660	4,999847
0,738000	1,758423	4,999847
0,739000	1,670532	4,174347
0,740000	1,802216	3,946381
0,741000	1,643524	2,802582
0,742000	1,841888	4,868011
0,743000	1,620178	4,999847
0,744000	1,879425	4,999847
0,745000	1,605835	4,999847
0,746000	1,862335	4,999847
0,747000	1,665497	4,999847
0,748000	1,817474	4,873810
0,749000	1,723480	4,170532
0,750000	1,778412	3,552246
0,751000	1,776733	4,775085
0,752000	1,746521	3,810577
0,753000	1,824799	4,999847
0,754000	1,717377	4,999847
0,755000	1,867981	4,999847
0,756000	1,692352	4,999847
0,757000	1,909332	4,999847
0,758000	1,669922	4,077148
0,759000	1,944885	3,847656
0,760000	1,676331	4,127045
0,761000	1,905975	3,260956
0,762000	1,738129	4,999847
0,763000	1,866455	4,999847
0,764000	1,795044	4,999847
0,765000	1,828918	4,999847
0,766000	1,846008	4,999847
0,767000	1,797943	4,999847
0,768000	1,893311	4,944153
0,769000	1,768646	4,311371
0,770000	1,938171	3,154144
0,771000	1,743622	4,635620
0,772000	1,980743	4,395905
0,773000	1,722260	4,999847
0,774000	1,998596	4,999847
0,775000	1,755219	4,999847
0,776000	1,958618	4,999847
0,777000	1,815033	4,999847
0,778000	1,921387	4,999847
0,779000	1,869049	3,177338
0,780000	1,888428	3,862915
0,781000	1,921997	3,479309
0,782000	1,859436	4,999847
0,783000	1,972046	4,999847
0,784000	1,832428	4,999847
0,785000	2,019501	4,999847
0,786000	1,807556	4,999847
0,787000	2,065277	4,999847
0,788000	1,787720	4,882660
0,789000	2,059479	4,999847
0,790000	1,844025	3,217010
0,791000	2,023468	3,603668
0,792000	1,902313	4,423828
0,793000	1,989594	4,999847
0,794000	1,750183	4,999847
0,795000	1,732025	4,999847
0,796000	1,778564	4,999847
0,797000	1,799011	4,999847
0,798000	2,103424	4,947662
0,799000	1,826630	3,765411
0,800000	2,091064	2,895660
0,801000	1,887665	3,718262
0,802000	2,056274	4,999847
0,803000	1,947937	4,999847
0,804000	2,023315	4,999847
0,805000	2,005005	4,999847
0,806000	1,993408	4,999847
0,807000	2,059937	4,999847
0,808000	1,965637	4,999847
0,809000	2,110443	4,813385
0,810000	1,938629	3,659973
0,811000	2,156525	4,889374
0,812000	1,914520	4,461365
0,813000	2,187958	4,620361
0,814000	1,923065	4,999847
0,815000	2,146606	4,999847
0,816000	1,982117	4,999847
0,817000	2,106934	4,999847
0,818000	2,039185	4,999847
0,819000	2,071686	3,603363
0,820000	2,093506	3,840485
0,821000	2,038879	3,534393
0,822000	2,143402	4,999847
0,823000	2,010040	4,999847
0,824000	2,187958	4,999847
0,825000	1,983337	4,999847
0,826000	2,218018	4,999847
0,827000	1,957703	4,999847
0,828000	2,205963	4,617462
0,829000	1,991272	4,999847
0,830000	2,159424	2,789154
0,831000	2,050934	4,266815
0,832000	2,121124	3,782959
0,833000	2,106934	4,999847
0,834000	2,088165	4,999847
0,835000	2,159576	4,999847
0,836000	2,058258	4,999847
0,837000	2,202301	4,999847
0,838000	2,031860	4,302063
0,839000	2,228241	3,545227
0,840000	2,007141	3,822784
0,841000	1,840515	4,517822
0,842000	1,753693	4,999847
0,843000	1,717529	4,999847
0,844000	1,701508	4,999847
0,845000	1,694794	4,999847
0,846000	1,692047	4,999847
0,847000	1,690979	4,999847
0,848000	1,689911	4,999847
0,849000	1,689453	4,999847
0,850000	1,689301	3,046570
0,851000	1,689758	4,820557
0,852000	1,688995	4,205322
0,853000	1,689301	4,999847
0,854000	1,688843	4,999847
0,855000	1,688690	4,999847
0,856000	1,689148	4,999847
0,857000	1,688995	4,999847
0,858000	1,688843	4,469452
0,859000	1,688843	3,428345
0,860000	1,688690	2,670135
0,861000	1,408234	4,182434
0,862000	1,168213	4,999847
0,863000	1,087189	4,999847
0,864000	1,026917	4,999847
0,865000	1,037292	4,999847
0,866000	1,000061	4,999847
0,867000	1,035309	4,999847
0,868000	0,993500	4,999847
0,869000	1,036835	4,999847
0,870000	1,001129	2,994080
0,871000	1,032257	4,690247
0,872000	1,013336	4,330902
0,873000	1,027222	4,999847
0,874000	1,024475	4,999847
0,875000	1,022339	4,999847
0,876000	1,035461	4,999847
0,877000	1,018372	4,999847
0,878000	1,045837	4,999847
0,879000	1,013641	4,067993
0,880000	1,056213	3,014221
0,881000	1,009521	3,239288
0,882000	1,066742	4,023132
0,883000	1,008759	4,999847
0,884000	1,064148	4,999847
0,885000	1,023560	4,999847
0,886000	1,055908	4,999847
0,887000	1,037750	4,999847
0,888000	1,048584	4,999847
0,889000	1,051483	4,619751
0,890000	1,041412	2,587585
0,891000	1,063995	3,936310
0,892000	1,034393	3,838806
0,893000	1,076355	4,999847
0,894000	1,028595	4,999847
0,895000	1,088715	4,999847
0,896000	1,001282	4,999847
0,897000	1,021576	4,999847
0,898000	0,995789	4,999847
0,899000	1,074677	4,404144
0,900000	1,039276	2,701111
0,901000	1,074677	4,999847
0,902000	1,061401	4,999847
0,903000	1,066742	4,999847
0,904000	1,078033	4,999847
0,905000	1,058350	4,999847
0,906000	1,093903	4,999847
0,907000	1,050720	4,999847
0,908000	1,109161	4,999847
0,909000	1,042938	4,527435
0,910000	1,122742	2,656097
0,911000	1,035614	4,999847
0,912000	1,128540	3,417969
0,913000	1,051178	4,999847
0,914000	1,114502	4,999847
0,915000	1,073456	4,999847
0,916000	1,101532	4,999847
0,917000	1,093140	4,999847
0,918000	1,089172	4,595184
0,919000	1,110992	3,204651
0,920000	1,076660	2,699127
0,921000	1,128387	4,388275
0,922000	1,067352	4,792786
0,923000	1,146088	4,999847
0,924000	1,058197	4,999847
0,925000	1,161346	4,999847
0,926000	1,052704	4,999847
0,927000	1,155701	4,999847
0,928000	1,077118	4,999847
0,929000	1,138000	4,160767
0,930000	1,100769	3,129883
0,931000	1,121368	4,060364
0,932000	1,123199	4,293213
0,933000	1,108246	4,999847
0,934000	1,144409	4,999847
0,935000	1,094666	4,999847
0,936000	1,164093	4,999847
0,937000	1,082764	4,999847
0,938000	1,182404	4,763336
0,939000	1,072235	3,618622
0,940000	1,198730	3,713074
0,941000	1,075897	4,804535
0,942000	1,179810	4,999847
0,943000	1,104736	4,999847
0,944000	1,159515	4,999847
0,945000	1,131439	4,999847
0,946000	1,141815	4,999847
0,947000	1,155701	4,999847
0,948000	1,125336	4,999847
0,949000	1,178894	3,891449
0,950000	1,110382	4,628601
0,951000	1,199951	4,940491
0,952000	1,096191	3,090515
0,953000	1,219940	4,999847
0,954000	1,084595	4,999847
0,955000	1,228180	4,999847
0,956000	1,104126	4,999847
0,957000	1,204071	4,999847
0,958000	1,135406	4,297333
0,959000	1,181335	3,771820
0,960000	1,164246	3,671722
0,961000	1,160736	3,498535
0,962000	1,190796	4,753113
0,963000	1,142426	4,999847
0,964000	1,215668	4,999847
0,965000	1,126404	4,999847
0,966000	1,238861	4,999847
0,967000	1,111298	4,999847
0,968000	1,260529	4,999847
0,969000	1,100006	4,368744
0,970000	1,251678	4,274902
0,971000	1,133423	3,690186
0,972000	1,224670	3,507080
0,973000	1,166534	4,999847
0,974000	1,199646	4,999847
0,975000	1,197510	4,999847
0,976000	1,177521	4,999847
0,977000	1,226044	4,999847
0,978000	1,157532	4,447327
0,979000	1,252899	3,611298
0,980000	1,140137	3,596954
0,981000	1,277313	4,520264
0,982000	1,123657	3,985596
0,983000	1,300812	4,999847
0,984000	1,127472	4,999847
0,985000	1,276093	4,999847
0,986000	1,167297	4,999847
0,987000	1,247253	4,999847
0,988000	1,202698	4,999847
0,989000	1,219940	4,615173
0,990000	1,234894	3,498688
0,991000	1,195221	4,999847
0,992000	1,265411	3,532257
0,993000	1,175079	4,999847
0,994000	1,294556	4,999847
0,995000	1,156769	4,999847
0,996000	1,320953	4,999847
0,997000	1,139832	4,999847
0,998000	1,332245	4,873962
0,999000	1,101532	3,303375

