LabVIEW Measurement	
Writer_Version	2
Reader_Version	2
Separator	Tab
Decimal_Separator	,
Multi_Headings	Yes
X_Columns	One
Time_Pref	Absolute
Operator	d.nicolai
Date	2023/11/09
Time	15:52:34,4435127999997708487
***End_of_Header***	
	
Channels	2		
Samples	1000	1000	
Date	2023/11/09	2023/11/09	
Time	15:52:39,7185155999996284538	15:52:39,7185155999996284538	
Y_Unit_Label	Volts	Volts	
X_Dimension	Time	Time	
X0	0,0000000000000000E+0	0,0000000000000000E+0	
Delta_X	0,001000	0,001000	
***End_of_Header***			
X_Value	powebox	triggerbox	Comment
0,000000	1,210937	0,970764
0,001000	1,151123	4,447479
0,002000	1,236877	2,934723
0,003000	1,133423	4,999847
0,004000	1,260986	4,999847
0,005000	1,118011	4,999847
0,006000	1,283722	4,999847
0,007000	1,114502	4,999847
0,008000	1,266022	4,501801
0,009000	1,151733	2,854462
0,010000	1,237335	2,627106
0,011000	1,186981	3,917694
0,012000	1,211700	4,769440
0,013000	1,219635	4,999847
0,014000	1,188965	4,999847
0,015000	1,250610	4,999847
0,016000	1,169739	4,999847
0,017000	1,239319	4,999847
0,018000	1,081848	4,999847
0,019000	1,274719	4,089355
0,020000	1,121521	4,999847
0,021000	1,317291	2,902985
0,022000	1,145477	3,594666
0,023000	1,290131	4,999847
0,024000	1,188354	4,999847
0,025000	1,260529	4,999847
0,026000	1,225739	4,999847
0,027000	1,233521	4,999847
0,028000	1,260529	4,721527
0,029000	1,208496	2,782135
0,030000	1,291809	2,361298
0,031000	1,186676	4,186096
0,032000	1,320496	4,999847
0,033000	1,166840	4,999847
0,034000	1,347046	4,999847
0,035000	1,148987	4,999847
0,036000	1,348572	4,999847
0,037000	1,182709	4,999847
0,038000	1,313171	4,999847
0,039000	1,225586	4,052887
0,040000	1,280670	4,005890
0,041000	1,264954	3,126678
0,042000	1,251831	4,432831
0,043000	1,300201	4,999847
0,044000	1,226501	4,999847
0,045000	1,333008	4,999847
0,046000	1,202850	4,999847
0,047000	1,363373	4,999847
0,048000	1,183014	4,045258
0,049000	1,390686	2,880249
0,050000	1,174774	2,575226
0,051000	1,371307	4,999847
0,052000	1,221161	4,964600
0,053000	1,334381	4,999847
0,054000	1,265259	4,999847
0,055000	1,300659	4,999847
0,056000	1,305389	4,999847
0,057000	1,271057	4,999847
0,058000	1,342773	4,999847
0,059000	1,244507	4,474335
0,060000	1,376343	3,690491
0,061000	1,220703	3,536682
0,062000	1,407013	4,486237
0,063000	1,200256	4,999847
0,064000	1,431427	4,999847
0,065000	1,212616	4,999847
0,066000	1,393127	4,999847
0,067000	1,262207	4,999847
0,068000	1,355286	3,907318
0,069000	1,307678	2,803192
0,070000	1,321564	4,176025
0,071000	1,349182	3,568115
0,072000	1,291199	4,784241
0,073000	1,386719	4,999847
0,074000	1,264496	4,999847
0,075000	1,421661	4,999847
0,076000	1,240692	4,999847
0,077000	1,453400	4,999847
0,078000	1,220245	4,050751
0,079000	1,458740	3,524170
0,080000	1,256561	3,339233
0,081000	1,415253	2,422333
0,082000	1,307220	3,545227
0,083000	1,377716	4,999847
0,084000	1,354218	4,999847
0,085000	1,343842	4,999847
0,086000	1,396179	4,999847
0,087000	1,313782	4,999847
0,088000	1,434174	4,642334
0,089000	1,286774	3,530121
0,090000	1,469879	4,579468
0,091000	1,263428	3,877716
0,092000	1,502380	4,999847
0,093000	1,250305	4,999847
0,094000	1,482391	4,999847
0,095000	1,302795	4,999847
0,096000	1,439209	4,999847
0,097000	1,356201	4,999847
0,098000	1,402893	4,999847
0,099000	1,403809	4,161072
0,100000	1,369171	3,656464
0,101000	1,446838	3,304901
0,102000	1,339264	3,950958
0,103000	1,485596	4,999847
0,104000	1,312561	4,999847
0,105000	1,520691	4,999847
0,106000	1,290436	4,999847
0,107000	1,550751	4,999847
0,108000	1,300964	4,470825
0,109000	1,510162	3,651581
0,110000	1,357880	3,096008
0,111000	1,466370	4,409943
0,112000	1,408844	4,999847
0,113000	1,429596	4,999847
0,114000	1,456909	4,999847
0,115000	1,397400	4,999847
0,116000	1,499939	4,999847
0,117000	1,368561	4,999847
0,118000	1,539154	4,522095
0,119000	1,342773	4,000244
0,120000	1,513367	3,538513
0,121000	1,244659	3,307190
0,122000	1,518860	4,036865
0,123000	1,330414	4,647675
0,124000	1,527252	4,999847
0,125000	1,410217	4,999847
0,126000	1,495514	4,999847
0,127000	1,466064	4,999847
0,128000	1,461029	3,871002
0,129000	1,513367	3,024750
0,130000	1,429291	3,043976
0,131000	1,555939	3,681946
0,132000	1,402130	4,878693
0,133000	1,594543	4,999847
0,134000	1,377716	4,999847
0,135000	1,629639	4,999847
0,136000	1,361237	4,999847
0,137000	1,614380	4,999847
0,138000	1,418762	4,208374
0,139000	1,569214	3,672333
0,140000	1,475372	3,050079
0,141000	1,529541	4,611969
0,142000	1,526337	4,004822
0,143000	1,495056	4,999847
0,144000	1,572571	4,999847
0,145000	1,464539	4,999847
0,146000	1,614227	4,999847
0,147000	1,438599	4,999847
0,148000	1,652374	4,598541
0,149000	1,415100	3,563385
0,150000	1,685944	2,481384
0,151000	1,421967	4,624023
0,152000	1,645660	4,999847
0,153000	1,481934	4,999847
0,154000	1,602020	4,999847
0,155000	1,537628	4,999847
0,156000	1,564331	4,999847
0,157000	1,587219	4,999847
0,158000	1,530914	4,999847
0,159000	1,632385	4,356842
0,160000	1,501923	4,477997
0,161000	1,673126	3,782043
0,162000	1,476898	4,331207
0,163000	1,710205	4,999847
0,164000	1,455383	4,999847
0,165000	1,724701	4,999847
0,166000	1,487122	4,999847
0,167000	1,678009	4,999847
0,168000	1,546478	4,536133
0,169000	1,636505	3,874817
0,170000	1,600037	4,278564
0,171000	1,599884	3,512268
0,172000	1,649017	4,999847
0,173000	1,568756	4,999847
0,174000	1,692810	4,999847
0,175000	1,540527	4,999847
0,176000	1,732941	4,999847
0,177000	1,515656	4,999847
0,178000	1,767578	4,544983
0,179000	1,496277	4,737701
0,180000	1,756287	2,873230
0,181000	1,552277	4,258728
0,182000	1,710205	4,278412
0,183000	1,609497	4,999847
0,184000	1,671143	4,999847
0,185000	1,662445	4,999847
0,186000	1,636505	4,999847
0,187000	1,709595	4,999847
0,188000	1,605225	4,986420
0,189000	1,752167	3,752747
0,190000	1,578522	2,707825
0,191000	1,791077	4,376831
0,192000	1,557159	4,999847
0,193000	1,826019	4,999847
0,194000	1,556396	4,999847
0,195000	1,789246	4,999847
0,196000	1,618958	4,999847
0,197000	1,746216	4,999847
0,198000	1,676178	4,874725
0,199000	1,708679	4,718475
0,200000	1,727753	2,353058
0,201000	1,675568	4,999847
0,202000	1,773834	4,502716
0,203000	1,645813	4,999847
0,204000	1,813965	4,999847
0,205000	1,620789	4,999847
0,206000	1,852570	4,999847
0,207000	1,599884	4,999847
0,208000	1,871643	4,661102
0,209000	1,626587	2,609711
0,210000	1,826935	2,652435
0,211000	1,688385	4,870758
0,212000	1,786346	4,999847
0,213000	1,742096	4,999847
0,214000	1,748199	4,999847
0,215000	1,791840	4,999847
0,216000	1,718292	4,999847
0,217000	1,837311	4,999847
0,218000	1,691742	4,999847
0,219000	1,878967	3,868408
0,220000	1,668243	3,348694
0,221000	1,918640	3,876801
0,222000	1,595459	4,498901
0,223000	1,833649	4,981079
0,224000	1,642151	4,999847
0,225000	1,842804	4,999847
0,226000	1,744843	4,999847
0,227000	1,826477	4,999847
0,228000	1,809235	4,447479
0,229000	1,798248	3,291779
0,230000	1,860046	3,019714
0,231000	1,769409	4,918213
0,232000	1,905365	4,999847
0,233000	1,741943	4,999847
0,234000	1,949005	4,999847
0,235000	1,719513	4,999847
0,236000	1,990662	4,999847
0,237000	1,714935	4,999847
0,238000	1,965790	4,999847
0,239000	1,763458	4,171753
0,240000	1,927490	3,848114
0,241000	1,834259	3,262482
0,242000	1,891327	3,906097
0,243000	1,885529	4,999847
0,244000	1,858368	4,999847
0,245000	1,935730	4,999847
0,246000	1,829071	4,999847
0,247000	1,983795	4,999847
0,248000	1,803741	4,999847
0,249000	2,030182	3,138733
0,250000	1,781769	3,592529
0,251000	2,061310	3,341217
0,252000	1,801605	4,617462
0,253000	2,024841	4,999847
0,254000	1,861267	4,999847
0,255000	1,989594	4,999847
0,256000	1,917114	4,999847
0,257000	1,956787	4,999847
0,258000	1,971741	4,999847
0,259000	1,927643	3,762665
0,260000	1,812134	3,543549
0,261000	1,812897	3,708954
0,262000	1,812897	2,847595
0,263000	1,896667	4,999847
0,264000	2,020416	4,999847
0,265000	1,952820	4,999847
0,266000	1,986694	4,999847
0,267000	2,006378	4,999847
0,268000	1,957703	4,999847
0,269000	2,059326	3,543701
0,270000	1,930847	4,178772
0,271000	2,109375	3,693390
0,272000	1,905365	4,504089
0,273000	2,155609	4,999847
0,274000	1,881561	4,999847
0,275000	2,152710	4,999847
0,276000	1,911163	4,999847
0,277000	2,112885	4,999847
0,278000	1,988831	4,999847
0,279000	2,075806	3,511963
0,280000	2,088165	4,578400
0,281000	2,042389	2,696533
0,282000	2,099152	2,761688
0,283000	2,011566	4,999847
0,284000	2,147827	4,999847
0,285000	1,981659	4,999847
0,286000	2,186737	4,999847
0,287000	1,954193	4,999847
0,288000	2,215424	4,772949
0,289000	1,944122	2,636261
0,290000	2,174072	2,924042
0,291000	2,002869	2,766266
0,292000	2,134094	3,988647
0,293000	2,060394	4,999847
0,294000	2,097931	4,999847
0,295000	2,115631	4,999847
0,296000	2,065582	4,999847
0,297000	2,165527	4,999847
0,298000	2,035980	4,426270
0,299000	2,205200	4,317474
0,300000	2,008972	3,467102
0,301000	2,228851	3,720398
0,302000	1,985168	3,672791
0,303000	2,225647	4,999847
0,304000	2,001648	4,999847
0,305000	2,175903	4,999847
0,306000	1,944733	4,999847
0,307000	1,803436	4,999847
0,308000	1,737976	4,767761
0,309000	1,709747	3,165436
0,310000	1,698151	4,288788
0,311000	1,692810	3,397980
0,312000	1,690216	4,571686
0,313000	1,689606	4,999847
0,314000	1,688995	4,999847
0,315000	1,688690	4,999847
0,316000	1,688385	4,999847
0,317000	1,688232	4,999847
0,318000	1,687927	4,999847
0,319000	1,688080	3,430634
0,320000	1,688690	2,601776
0,321000	1,688232	4,486084
0,322000	1,688232	3,836823
0,323000	1,688232	4,999847
0,324000	1,672821	4,999847
0,325000	1,613617	4,999847
0,326000	1,609344	4,999847
0,327000	1,301575	4,999847
0,328000	1,116333	4,686432
0,329000	1,071777	3,372803
0,330000	1,014404	4,999847
0,331000	1,037598	2,584229
0,332000	0,994110	4,999847
0,333000	1,033478	4,999847
0,334000	0,998993	4,999847
0,335000	1,027374	4,999847
0,336000	1,007233	4,999847
0,337000	1,022339	4,999847
0,338000	1,019592	4,999847
0,339000	1,017303	3,828278
0,340000	1,030426	2,554626
0,341000	1,013794	3,413849
0,342000	1,026459	4,372711
0,343000	1,009521	4,999847
0,344000	1,050415	4,999847
0,345000	1,006012	4,999847
0,346000	1,060333	4,999847
0,347000	1,004944	4,999847
0,348000	1,058197	4,286346
0,349000	1,018524	3,606873
0,350000	1,051178	4,064331
0,351000	1,032562	4,215240
0,352000	1,043854	4,999847
0,353000	1,046448	4,999847
0,354000	1,037292	4,999847
0,355000	1,058502	4,999847
0,356000	1,030273	4,999847
0,357000	1,070862	4,999847
0,358000	1,024628	4,999847
0,359000	1,082153	4,745178
0,360000	1,019135	4,563141
0,361000	1,092834	4,046478
0,362000	1,024170	3,745880
0,363000	1,083221	4,826660
0,364000	1,041718	4,999847
0,365000	1,072845	4,999847
0,366000	1,058502	4,999847
0,367000	1,063385	4,999847
0,368000	1,073761	4,373322
0,369000	1,054077	3,237762
0,370000	1,089020	3,006897
0,371000	1,046600	4,813385
0,372000	1,103973	4,999847
0,373000	1,039581	4,999847
0,374000	1,118011	4,999847
0,375000	1,032715	4,999847
0,376000	1,122589	4,999847
0,377000	1,046906	4,999847
0,378000	1,109009	4,524078
0,379000	1,067963	3,794250
0,380000	1,095734	1,499176
0,381000	1,087036	4,143982
0,382000	1,083984	4,074707
0,383000	1,105652	4,999847
0,384000	1,073151	4,999847
0,385000	1,122589	4,999847
0,386000	1,063080	4,999847
0,387000	1,138611	4,999847
0,388000	1,053162	4,254150
0,389000	1,154480	3,103333
0,390000	1,048737	2,899780
0,391000	1,149139	3,768005
0,392000	1,072845	4,904633
0,393000	1,132202	4,999847
0,394000	1,095734	4,999847
0,395000	1,116943	4,999847
0,396000	1,117401	4,999847
0,397000	1,102295	4,999847
0,398000	1,138000	4,999847
0,399000	1,089630	4,628296
0,400000	1,157379	2,709351
0,401000	1,078491	3,641357
0,402000	1,175537	3,435059
0,403000	1,067657	4,999847
0,404000	1,191559	4,999847
0,405000	1,071930	4,999847
0,406000	1,174164	4,999847
0,407000	1,100311	4,999847
0,408000	1,154633	4,999847
0,409000	1,126251	3,901062
0,410000	1,136322	3,406830
0,411000	1,149902	3,164978
0,412000	1,120300	4,999847
0,413000	1,172333	4,999847
0,414000	1,105499	4,999847
0,415000	1,193390	4,999847
0,416000	1,092377	4,999847
0,417000	1,213531	4,999847
0,418000	1,080780	4,810181
0,419000	1,220856	3,802948
0,420000	1,099091	3,669281
0,421000	1,197052	3,530731
0,422000	1,129456	3,384094
0,423000	1,175385	4,999847
0,424000	1,158295	4,999847
0,425000	1,155548	4,999847
0,426000	1,185303	4,999847
0,427000	1,079865	4,999847
0,428000	1,133118	4,482574
0,429000	1,037903	3,295898
0,430000	1,140900	3,287811
0,431000	1,061401	4,444275
0,432000	1,234894	4,999847
0,433000	1,089020	4,999847
0,434000	1,243439	4,999847
0,435000	1,127930	4,999847
0,436000	1,219940	4,999847
0,437000	1,162567	4,999847
0,438000	1,195526	4,999847
0,439000	1,193085	4,461365
0,440000	1,174164	3,344574
0,441000	1,221466	4,011688
0,442000	1,154785	3,361206
0,443000	1,248016	4,999847
0,444000	1,137238	4,999847
0,445000	1,272583	4,999847
0,446000	1,120758	4,999847
0,447000	1,295013	4,999847
0,448000	1,123962	4,836273
0,449000	1,270294	3,219452
0,450000	1,162262	4,737549
0,451000	1,241150	3,761902
0,452000	1,197662	4,999847
0,453000	1,215668	4,999847
0,454000	1,230469	4,999847
0,455000	1,191864	4,999847
0,456000	1,260834	4,999847
0,457000	1,171112	4,999847
0,458000	1,288147	4,999847
0,459000	1,152496	3,588867
0,460000	1,314392	4,194489
0,461000	1,134949	3,341217
0,462000	1,325836	4,033203
0,463000	1,156464	4,999847
0,464000	1,293793	4,999847
0,465000	1,198120	4,999847
0,466000	1,263275	4,999847
0,467000	1,235657	4,999847
0,468000	1,235504	4,999847
0,469000	1,270142	2,835846
0,470000	1,210175	3,794098
0,471000	1,301422	3,774261
0,472000	1,187592	4,999847
0,473000	1,330109	4,999847
0,474000	1,167908	4,999847
0,475000	1,356812	4,999847
0,476000	1,151428	4,999847
0,477000	1,350555	4,999847
0,478000	1,193085	4,999847
0,479000	1,315002	3,824921
0,480000	1,235657	3,731689
0,481000	1,283722	3,233337
0,482000	1,275330	3,296967
0,483000	1,253510	4,999847
0,484000	1,311340	4,999847
0,485000	1,227875	4,999847
0,486000	1,343079	4,999847
0,487000	1,204834	4,999847
0,488000	1,373444	4,999847
0,489000	1,184235	2,843628
0,490000	1,401672	4,451752
0,491000	1,184998	4,081116
0,492000	1,374207	4,578400
0,493000	1,233063	4,999847
0,494000	1,337280	4,999847
0,495000	1,278076	4,999847
0,496000	1,304016	4,999847
0,497000	1,317749	4,999847
0,498000	1,274261	4,999847
0,499000	1,354980	4,472504
0,500000	1,248016	2,421417
0,501000	1,388855	4,092560
0,502000	1,224670	2,585144
0,503000	1,420288	4,999847
0,504000	1,203613	4,999847
0,505000	1,436920	4,999847
0,506000	1,225586	4,999847
0,507000	1,396790	4,999847
0,508000	1,275635	4,871979
0,509000	1,358948	3,568115
0,510000	1,320801	4,198456
0,511000	1,325226	4,054260
0,512000	1,362762	4,861755
0,513000	1,295166	4,999847
0,514000	1,400604	4,999847
0,515000	1,268616	4,999847
0,516000	1,434937	4,999847
0,517000	1,244659	4,999847
0,518000	1,466522	4,999847
0,519000	1,224823	3,529205
0,520000	1,462555	3,034515
0,521000	1,270294	3,630524
0,522000	1,419983	3,490601
0,523000	1,321716	4,999847
0,524000	1,381683	4,999847
0,525000	1,368408	4,999847
0,526000	1,348114	4,999847
0,527000	1,410217	4,999847
0,528000	1,317902	4,999847
0,529000	1,411438	2,720184
0,530000	1,218872	2,651520
0,531000	1,445007	4,036102
0,532000	1,252441	4,134369
0,533000	1,509247	4,999847
0,534000	1,261749	4,999847
0,535000	1,486511	4,999847
0,536000	1,320038	4,999847
0,537000	1,445007	4,999847
0,538000	1,371613	4,999847
0,539000	1,407166	4,419861
0,540000	1,418915	3,555145
0,541000	1,373901	3,846741
0,542000	1,461182	3,382263
0,543000	1,345215	4,999847
0,544000	1,500092	4,999847
0,545000	1,319122	4,999847
0,546000	1,535492	4,999847
0,547000	1,296539	4,999847
0,548000	1,558685	4,608917
0,549000	1,316986	3,746643
0,550000	1,514435	4,017334
0,551000	1,374207	3,634338
0,552000	1,472626	4,617767
0,553000	1,425934	4,999847
0,554000	1,435852	4,999847
0,555000	1,473083	4,999847
0,556000	1,403503	4,999847
0,557000	1,515808	4,999847
0,558000	1,375580	4,999847
0,559000	1,554260	3,903809
0,560000	1,350708	3,721313
0,561000	1,588898	2,678680
0,562000	1,328583	3,264160
0,563000	1,588898	4,999847
0,564000	1,375427	4,999847
0,565000	1,543732	4,999847
0,566000	1,431885	4,999847
0,567000	1,502991	4,999847
0,568000	1,483612	4,447479
0,569000	1,467285	3,092499
0,570000	1,529236	2,919159
0,571000	1,435852	4,218903
0,572000	1,571503	4,382324
0,573000	1,408997	4,999847
0,574000	1,610413	4,999847
0,575000	1,385498	4,999847
0,576000	1,645203	4,999847
0,577000	1,377411	4,999847
0,578000	1,619415	4,999847
0,579000	1,436768	4,817810
0,580000	1,574860	2,777405
0,581000	1,492767	4,475250
0,582000	1,535645	3,130341
0,583000	1,543274	4,999847
0,584000	1,502075	4,999847
0,585000	1,589203	4,999847
0,586000	1,472321	4,999847
0,587000	1,630554	4,999847
0,588000	1,446228	4,632721
0,589000	1,667938	3,030396
0,590000	1,424103	2,693939
0,591000	1,695557	3,138885
0,592000	1,440887	4,995880
0,593000	1,651154	4,999847
0,594000	1,500702	4,999847
0,595000	1,608582	4,999847
0,596000	1,555634	4,999847
0,597000	1,571045	4,999847
0,598000	1,604462	4,999847
0,599000	1,538391	3,893433
0,600000	1,649475	4,833527
0,601000	1,509857	2,608643
0,602000	1,690063	2,889709
0,603000	1,485138	4,999847
0,604000	1,726227	4,999847
0,605000	1,464081	4,999847
0,606000	1,730042	4,999847
0,607000	1,506348	4,999847
0,608000	1,684418	4,999847
0,609000	1,565704	3,452911
0,610000	1,643219	3,450623
0,611000	1,618500	3,025513
0,612000	1,607513	4,090118
0,613000	1,666565	4,999847
0,614000	1,576233	4,999847
0,615000	1,709900	4,999847
0,616000	1,549072	4,999847
0,617000	1,749420	4,999847
0,618000	1,525726	4,999847
0,619000	1,785583	4,902191
0,620000	1,513367	3,673859
0,621000	1,762848	3,849487
0,622000	1,572723	4,999847
0,623000	1,718445	4,999847
0,624000	1,630249	4,999847
0,625000	1,679382	4,999847
0,626000	1,682281	4,999847
0,627000	1,645050	4,999847
0,628000	1,728821	4,999847
0,629000	1,615295	3,588257
0,630000	1,771088	3,719482
0,631000	1,589203	3,447418
0,632000	1,742706	4,999847
0,633000	1,506195	4,999847
0,634000	1,814728	4,999847
0,635000	1,567535	4,999847
0,636000	1,792145	4,999847
0,637000	1,637573	4,999847
0,638000	1,753235	4,812164
0,639000	1,695099	4,277954
0,640000	1,716461	4,277954
0,641000	1,745300	3,076630
0,642000	1,683807	3,183289
0,643000	1,790924	4,999847
0,644000	1,655884	4,999847
0,645000	1,832733	4,999847
0,646000	1,631317	4,999847
0,647000	1,870422	4,999847
0,648000	1,610107	4,542236
0,649000	1,880646	3,729706
0,650000	1,647797	3,442078
0,651000	1,835632	2,712402
0,652000	1,707916	4,999847
0,653000	1,794739	4,999847
0,654000	1,762238	4,999847
0,655000	1,759796	4,999847
0,656000	1,811371	4,999847
0,657000	1,728668	4,999847
0,658000	1,855316	4,999847
0,659000	1,702271	4,140778
0,660000	1,897430	3,232269
0,661000	1,678772	3,099060
0,662000	1,938019	3,088837
0,663000	1,662598	4,999847
0,664000	1,925354	4,999847
0,665000	1,721497	4,999847
0,666000	1,883240	4,999847
0,667000	1,779938	4,999847
0,668000	1,844940	4,499664
0,669000	1,831970	3,549805
0,670000	1,810760	3,682251
0,671000	1,880035	3,417664
0,672000	1,781311	4,999847
0,673000	1,925812	4,999847
0,674000	1,755371	4,999847
0,675000	1,970062	4,999847
0,676000	1,732635	4,999847
0,677000	2,011414	4,999847
0,678000	1,738586	4,999847
0,679000	1,976929	4,968109
0,680000	1,799622	4,231720
0,681000	1,938171	3,639221
0,682000	1,855316	2,977905
0,683000	1,904144	4,999847
0,684000	1,907196	4,999847
0,685000	1,872406	4,999847
0,686000	1,958008	4,999847
0,687000	1,843719	4,999847
0,688000	2,005920	4,468994
0,689000	1,818085	2,769470
0,690000	2,052460	4,068756
0,691000	1,795197	3,596802
0,692000	2,074585	4,999847
0,693000	1,826019	4,999847
0,694000	2,037964	4,999847
0,695000	1,885986	4,999847
0,696000	2,003021	4,999847
0,697000	1,811523	4,999847
0,698000	1,812439	4,999847
0,699000	1,812897	4,745026
0,700000	1,814728	3,054504
0,701000	2,096863	4,365234
0,702000	1,870117	3,943787
0,703000	2,058716	4,257355
0,704000	1,929474	4,999847
0,705000	2,024689	4,999847
0,706000	1,985779	4,999847
0,707000	1,993866	4,999847
0,708000	2,040863	4,999847
0,709000	1,964874	3,027802
0,710000	2,092896	3,813171
0,711000	1,938019	3,740082
0,712000	2,141113	4,805756
0,713000	1,913300	4,999847
0,714000	2,181854	4,999847
0,715000	1,904755	4,999847
0,716000	2,150726	4,999847
0,717000	1,963348	4,999847
0,718000	2,110596	4,999847
0,719000	2,021484	3,851929
0,720000	2,074280	2,701874
0,721000	2,076263	4,701843
0,722000	2,041168	4,407959
0,723000	2,127380	4,999847
0,724000	2,011108	4,999847
0,725000	2,172699	4,999847
0,726000	1,982727	4,999847
0,727000	2,207336	4,999847
0,728000	1,957245	4,997101
0,729000	2,214203	3,483429
0,730000	1,972504	3,392792
0,731000	2,164764	3,194580
0,732000	2,032013	4,999847
0,733000	2,125244	4,999847
0,734000	2,028351	4,999847
0,735000	2,037811	4,999847
0,736000	2,026062	4,999847
0,737000	1,997375	4,999847
0,738000	2,153625	4,999847
0,739000	2,029114	4,119873
0,740000	2,219086	2,498016
0,741000	2,007294	4,999847
0,742000	2,234650	3,308563
0,743000	1,985168	4,999847
0,744000	1,827240	4,999847
0,745000	1,748810	4,999847
0,746000	1,715088	4,999847
0,747000	1,701202	4,999847
0,748000	1,695099	4,762878
0,749000	1,692352	3,959198
0,750000	1,691742	2,833710
0,751000	1,690674	4,495239
0,752000	1,690369	4,850922
0,753000	1,690216	4,999847
0,754000	1,690063	4,999847
0,755000	1,689911	4,999847
0,756000	1,689758	4,999847
0,757000	1,690063	4,999847
0,758000	1,689758	4,999847
0,759000	1,690216	4,165497
0,760000	1,689758	3,618317
0,761000	1,689758	4,999847
0,762000	1,689606	3,567657
0,763000	1,689453	4,999847
0,764000	1,689301	4,999847
0,765000	1,408386	4,999847
0,766000	1,168518	4,999847
0,767000	1,088104	4,999847
0,768000	1,027832	4,962158
0,769000	1,038666	3,184814
0,770000	1,000671	3,290405
0,771000	1,035919	3,569641
0,772000	0,994110	4,999847
0,773000	1,037140	4,999847
0,774000	1,002655	4,999847
0,775000	1,031799	4,999847
0,776000	1,013947	4,999847
0,777000	1,026764	4,999847
0,778000	1,024628	4,608459
0,779000	1,021576	3,704987
0,780000	1,035309	2,214508
0,781000	1,017151	4,939117
0,782000	1,045837	3,571472
0,783000	1,013184	4,472198
0,784000	1,056213	4,999847
0,785000	1,009521	4,999847
0,786000	1,066437	4,999847
0,787000	1,009064	4,999847
0,788000	1,063538	4,999847
0,789000	1,023407	3,774719
0,790000	1,055450	3,999939
0,791000	1,037598	3,726044
0,792000	1,047821	4,999847
0,793000	1,051178	4,999847
0,794000	1,040802	4,999847
0,795000	1,064148	4,999847
0,796000	1,034546	4,999847
0,797000	1,076355	4,999847
0,798000	1,028137	4,999847
0,799000	1,088409	4,141998
0,800000	1,022949	3,793030
0,801000	1,098480	3,687286
0,802000	1,028290	3,829346
0,803000	1,088104	4,999847
0,804000	1,046143	4,999847
0,805000	1,077881	4,999847
0,806000	1,063232	4,999847
0,807000	1,067963	4,999847
0,808000	1,079712	4,999847
0,809000	1,059113	2,901764
0,810000	1,095123	2,800293
0,811000	1,050720	4,999847
0,812000	1,110229	4,999847
0,813000	1,042938	4,999847
0,814000	1,124115	4,999847
0,815000	1,036530	4,999847
0,816000	1,128387	4,999847
0,817000	1,051788	4,999847
0,818000	1,113739	4,649811
0,819000	1,072693	4,389648
0,820000	1,100616	2,424927
0,821000	1,092529	4,759979
0,822000	1,088104	4,008331
0,823000	1,111145	4,999847
0,824000	1,077271	4,999847
0,825000	1,128540	4,999847
0,826000	1,066437	4,999847
0,827000	1,145172	4,999847
0,828000	1,057434	4,664001
0,829000	1,161346	3,711548
0,830000	1,052704	3,106842
0,831000	1,154327	3,710480
0,832000	1,077118	4,999847
0,833000	1,137238	4,999847
0,834000	1,101074	4,999847
0,835000	1,121063	4,999847
0,836000	1,106110	4,999847
0,837000	1,028748	4,999847
0,838000	1,043243	4,740906
0,839000	1,036682	4,965973
0,840000	1,140289	3,359985
0,841000	1,072083	3,725891
0,842000	1,178131	4,228821
0,843000	1,069641	4,999847
0,844000	1,196899	4,999847
0,845000	1,076965	4,999847
0,846000	1,179047	4,999847
0,847000	1,105042	4,999847
0,848000	1,159058	4,131470
0,849000	1,131439	3,756866
0,850000	1,141052	2,910767
0,851000	1,156464	3,855896
0,852000	1,124420	4,999847
0,853000	1,178741	4,999847
0,854000	1,109772	4,999847
0,855000	1,199799	4,999847
0,856000	1,096039	4,999847
0,857000	1,220245	4,999847
0,858000	1,084442	4,609070
0,859000	1,226501	4,289246
0,860000	1,104584	2,695007
0,861000	1,202545	4,945984
0,862000	1,135559	3,765869
0,863000	1,180420	4,999847
0,864000	1,164398	4,999847
0,865000	1,160431	4,999847
0,866000	1,191406	4,999847
0,867000	1,142120	4,999847
0,868000	1,216125	4,378052
0,869000	1,125336	3,197784
0,870000	1,239014	4,282990
0,871000	1,110840	3,450165
0,872000	1,260834	4,999847
0,873000	1,101379	4,999847
0,874000	1,252289	4,999847
0,875000	1,134796	4,999847
0,876000	1,224976	4,999847
0,877000	1,168365	4,999847
0,878000	1,200562	4,999847
0,879000	1,199493	4,113312
0,880000	1,178284	3,650665
0,881000	1,227722	4,697723
0,882000	1,158905	4,440002
0,883000	1,254730	4,999847
0,884000	1,140747	4,999847
0,885000	1,279602	4,999847
0,886000	1,124878	4,999847
0,887000	1,301575	4,999847
0,888000	1,129150	4,491730
0,889000	1,275940	3,676147
0,890000	1,168060	3,004150
0,891000	1,246338	4,536743
0,892000	1,204224	4,620514
0,893000	1,220245	4,999847
0,894000	1,237030	4,999847
0,895000	1,196136	4,999847
0,896000	1,266937	4,999847
0,897000	1,175079	4,999847
0,898000	1,295013	4,999847
0,899000	1,156311	4,673767
0,900000	1,321106	2,955170
0,901000	1,139221	3,833923
0,902000	1,331635	3,692169
0,903000	1,163025	3,634644
0,904000	1,298218	4,999847
0,905000	1,204224	4,999847
0,906000	1,266937	4,999847
0,907000	1,241302	4,999847
0,908000	1,239166	4,999847
0,909000	1,276093	3,128967
0,910000	1,214294	3,732605
0,911000	1,308136	3,458557
0,912000	1,191711	4,999847
0,913000	1,337433	4,999847
0,914000	1,171875	4,999847
0,915000	1,363983	4,999847
0,916000	1,156311	4,999847
0,917000	1,355591	4,999847
0,918000	1,198730	4,999847
0,919000	1,319427	4,918671
0,920000	1,241913	2,413788
0,921000	1,286926	3,851166
0,922000	1,281586	4,098358
0,923000	1,258087	4,999847
0,924000	1,317291	4,999847
0,925000	1,231842	4,999847
0,926000	1,350098	4,999847
0,927000	1,208801	4,999847
0,928000	1,380310	4,222870
0,929000	1,188354	4,378967
0,930000	1,408234	3,756256
0,931000	1,189880	3,436432
0,932000	1,377869	4,999847
0,933000	1,238251	4,999847
0,934000	1,340179	4,999847
0,935000	1,282501	4,999847
0,936000	1,306610	4,999847
0,937000	1,323242	4,999847
0,938000	1,276855	4,999847
0,939000	1,291962	4,999847
0,940000	1,149292	3,596954
0,941000	1,294403	4,524841
0,942000	1,131439	4,497223
0,943000	1,380920	4,933929
0,944000	1,187897	4,999847
0,945000	1,432800	4,999847
0,946000	1,227264	4,999847
0,947000	1,398621	4,999847
0,948000	1,280212	4,460144
0,949000	1,361542	4,377899
0,950000	1,326294	3,847198
0,951000	1,327972	3,476410
0,952000	1,367950	4,999847
0,953000	1,298218	4,999847
0,954000	1,406555	4,999847
0,955000	1,271820	4,999847
0,956000	1,440430	4,999847
0,957000	1,247559	4,999847
0,958000	1,472168	4,999847
0,959000	1,228027	3,805695
0,960000	1,466370	2,984619
0,961000	1,275787	3,344269
0,962000	1,423035	3,277740
0,963000	1,327515	4,999847
0,964000	1,385498	4,999847
0,965000	1,374054	4,999847
0,966000	1,351318	4,999847
0,967000	1,416321	4,999847
0,968000	1,321564	4,533386
0,969000	1,455231	3,945007
0,970000	1,295471	4,393005
0,971000	1,490173	4,088440
0,972000	1,272278	4,638672
0,973000	1,522217	4,999847
0,974000	1,270599	4,999847
0,975000	1,491241	4,999847
0,976000	1,326141	4,999847
0,977000	1,448669	4,999847
0,978000	1,377869	4,999847
0,979000	1,410980	4,542847
0,980000	1,425018	2,820129
0,981000	1,378021	4,203033
0,982000	1,467590	3,383484
0,983000	1,347656	4,999847
0,984000	1,504517	4,999847
0,985000	1,321106	4,999847
0,986000	1,540070	4,999847
0,987000	1,298828	4,999847
0,988000	1,561432	4,689178
0,989000	1,322021	3,361359
0,990000	1,516571	3,208160
0,991000	1,379242	4,270172
0,992000	1,475067	4,999847
0,993000	1,431122	4,999847
0,994000	1,438141	4,999847
0,995000	1,477356	4,999847
0,996000	1,406250	4,999847
0,997000	1,520386	4,999847
0,998000	1,377563	4,933624
0,999000	1,558838	4,447021

