LabVIEW Measurement	
Writer_Version	2
Reader_Version	2
Separator	Tab
Decimal_Separator	,
Multi_Headings	Yes
X_Columns	One
Time_Pref	Absolute
Operator	d.nicolai
Date	2023/11/09
Time	15:52:34,4435127999997708487
***End_of_Header***	
	
Channels	2		
Samples	1000	1000	
Date	2023/11/09	2023/11/09	
Time	15:52:36,5685122999997061247	15:52:36,5685122999997061247	
Y_Unit_Label	Volts	Volts	
X_Dimension	Time	Time	
X0	0,0000000000000000E+0	0,0000000000000000E+0	
Delta_X	0,001000	0,001000	
***End_of_Header***			
X_Value	powebox	triggerbox	Comment
0,000000	1,042938	0,791168
0,001000	1,031952	3,142242
0,002000	1,055450	4,608459
0,003000	1,026459	4,999847
0,004000	1,067047	4,999847
0,005000	1,021271	4,999847
0,006000	1,078186	4,999847
0,007000	1,015472	4,999847
0,008000	1,084290	4,276733
0,009000	1,023407	4,230652
0,010000	1,075287	1,191406
0,011000	1,040344	4,837189
0,012000	1,065674	3,448944
0,013000	1,056366	4,845734
0,014000	1,057587	4,999847
0,015000	1,071320	4,999847
0,016000	1,048126	4,999847
0,017000	1,085205	4,999847
0,018000	1,041565	4,550629
0,019000	1,098938	2,975922
0,020000	1,035309	3,711853
0,021000	1,112366	3,803711
0,022000	1,029205	4,999847
0,023000	1,112823	4,999847
0,024000	1,046906	4,999847
0,025000	1,100311	4,999847
0,026000	1,066742	4,999847
0,027000	1,088562	4,999847
0,028000	1,085358	4,999847
0,029000	1,077271	3,671875
0,030000	1,103363	1,917419
0,031000	1,067200	2,265930
0,032000	1,119385	3,575745
0,033000	1,058502	4,999847
0,034000	1,135101	4,999847
0,035000	1,049500	4,999847
0,036000	1,150055	4,999847
0,037000	1,049347	4,999847
0,038000	1,139679	4,965210
0,039000	1,072693	3,896332
0,040000	1,123810	2,405701
0,041000	1,094666	3,041229
0,042000	1,109009	4,999847
0,043000	1,116333	4,999847
0,044000	1,096039	4,999847
0,045000	1,135712	4,999847
0,046000	1,084137	4,999847
0,047000	1,153717	4,999847
0,048000	1,071777	4,909668
0,049000	1,169739	4,975739
0,050000	1,061554	2,212830
0,051000	1,181488	3,233643
0,052000	1,072235	3,499756
0,053000	1,162415	4,999847
0,054000	1,098633	4,999847
0,055000	1,143951	4,999847
0,056000	1,123810	4,999847
0,057000	1,127014	4,999847
0,058000	1,147308	4,824066
0,059000	1,112366	3,943176
0,060000	1,169434	1,818695
0,061000	1,098328	3,601379
0,062000	1,189575	3,826752
0,063000	1,086426	4,999847
0,064000	1,208344	4,999847
0,065000	1,074677	4,999847
0,066000	1,209412	4,999847
0,067000	1,100464	4,999847
0,068000	1,186981	4,999847
0,069000	1,130676	3,824158
0,070000	1,166534	3,460846
0,071000	1,157837	4,000549
0,072000	1,147308	2,985992
0,073000	1,183167	4,999847
0,074000	1,130829	4,999847
0,075000	1,207123	4,999847
0,076000	1,094971	4,999847
0,077000	1,186066	4,999847
0,078000	1,080170	4,999847
0,079000	1,240387	3,623657
0,080000	1,079254	3,261414
0,081000	1,210327	4,999847
0,082000	1,097565	4,529114
0,083000	1,192474	4,999847
0,084000	1,156006	4,999847
0,085000	1,183624	4,999847
0,086000	1,191559	4,999847
0,087000	1,165466	4,999847
0,088000	1,220245	4,999847
0,089000	1,147003	4,382172
0,090000	1,244965	3,061218
0,091000	1,130219	4,554443
0,092000	1,268311	3,569031
0,093000	1,114960	4,999847
0,094000	1,286163	4,999847
0,095000	1,126099	4,999847
0,096000	1,192932	4,999847
0,097000	1,091766	4,999847
0,098000	1,200714	4,999847
0,099000	1,185608	3,409424
0,100000	1,200714	4,274597
0,101000	1,227722	4,320984
0,102000	1,181488	4,928741
0,103000	1,257324	4,999847
0,104000	1,161957	4,999847
0,105000	1,285400	4,999847
0,106000	1,145172	4,999847
0,107000	1,310120	4,999847
0,108000	1,129150	4,999847
0,109000	1,313019	4,001465
0,110000	1,159363	3,645477
0,111000	1,280518	4,656525
0,112000	1,198883	3,943939
0,113000	1,250916	4,999847
0,114000	1,234131	4,999847
0,115000	1,224060	4,999847
0,116000	1,268463	4,999847
0,117000	1,200714	4,999847
0,118000	1,299133	4,999847
0,119000	1,179810	3,671265
0,120000	1,327667	4,347992
0,121000	1,160278	2,704773
0,122000	1,352539	4,169769
0,123000	1,151733	4,999847
0,124000	1,336517	4,999847
0,125000	1,194611	4,999847
0,126000	1,301727	4,999847
0,127000	1,236572	4,999847
0,128000	1,270752	4,999847
0,129000	1,274719	3,512268
0,130000	1,243286	4,138184
0,131000	1,308746	3,813324
0,132000	1,217804	3,045349
0,133000	1,340179	4,999847
0,134000	1,195984	4,999847
0,135000	1,370239	4,999847
0,136000	1,176605	4,999847
0,137000	1,394043	4,999847
0,138000	1,186829	4,999847
0,139000	1,357727	3,993073
0,140000	1,233215	2,755737
0,141000	1,322327	4,401093
0,142000	1,276550	4,850311
0,143000	1,290283	4,999847
0,144000	1,315613	4,999847
0,145000	1,261902	4,999847
0,146000	1,351776	4,999847
0,147000	1,236267	4,999847
0,148000	1,384583	4,999847
0,149000	1,213837	4,412231
0,150000	1,411591	3,811493
0,151000	1,192322	4,108734
0,152000	1,420288	2,923431
0,153000	1,226501	4,999847
0,154000	1,380157	4,999847
0,155000	1,275482	4,999847
0,156000	1,343536	4,999847
0,157000	1,319275	4,999847
0,158000	1,310883	4,999847
0,159000	1,359711	2,631989
0,160000	1,282043	4,534607
0,161000	1,395569	3,452454
0,162000	1,255798	4,275055
0,163000	1,430359	4,999847
0,164000	1,233521	4,999847
0,165000	1,461334	4,999847
0,166000	1,219940	4,999847
0,167000	1,445007	4,999847
0,168000	1,269684	4,999847
0,169000	1,401672	4,179840
0,170000	1,319122	4,044037
0,171000	1,365662	4,808960
0,172000	1,365509	3,869629
0,173000	1,333618	4,999847
0,174000	1,406860	4,999847
0,175000	1,303406	4,999847
0,176000	1,443329	4,999847
0,177000	1,277466	4,999847
0,178000	1,476746	4,299316
0,179000	1,255035	3,504028
0,180000	1,506805	2,282562
0,181000	1,263123	4,151764
0,182000	1,467590	4,365387
0,183000	1,318054	4,999847
0,184000	1,426086	4,999847
0,185000	1,368408	4,999847
0,186000	1,389313	4,999847
0,187000	1,413879	4,999847
0,188000	1,358032	4,592285
0,189000	1,455994	4,133148
0,190000	1,328583	2,873230
0,191000	1,494141	4,240723
0,192000	1,304474	3,165131
0,193000	1,528931	4,999847
0,194000	1,282806	4,999847
0,195000	1,540527	4,999847
0,196000	1,317139	4,999847
0,197000	1,495667	4,999847
0,198000	1,335907	3,961945
0,199000	1,379089	3,032990
0,200000	1,371002	3,634338
0,201000	1,397095	3,866272
0,202000	1,459656	4,952698
0,203000	1,383514	4,999847
0,204000	1,508942	4,999847
0,205000	1,358795	4,999847
0,206000	1,548157	4,999847
0,207000	1,335297	4,999847
0,208000	1,582794	4,999847
0,209000	1,317749	4,608307
0,210000	1,569366	4,295807
0,211000	1,373901	3,385620
0,212000	1,524200	4,846191
0,213000	1,428986	4,784393
0,214000	1,484528	4,999847
0,215000	1,479492	4,999847
0,216000	1,449738	4,999847
0,217000	1,524963	4,999847
0,218000	1,419373	4,287262
0,219000	1,566467	3,726959
0,220000	1,392822	1,845856
0,221000	1,604004	4,081573
0,222000	1,370239	4,999847
0,223000	1,637421	4,999847
0,224000	1,374969	4,999847
0,225000	1,598816	4,999847
0,226000	1,434631	4,999847
0,227000	1,555023	4,999847
0,228000	1,489563	4,657288
0,229000	1,517181	4,749756
0,230000	1,538849	2,807770
0,231000	1,484222	4,550476
0,232000	1,583405	3,116760
0,233000	1,454773	4,999847
0,234000	1,624451	4,999847
0,235000	1,429443	4,999847
0,236000	1,661072	4,999847
0,237000	1,407623	4,999847
0,238000	1,676483	4,398346
0,239000	1,438446	4,375000
0,240000	1,630707	2,637177
0,241000	1,497803	4,433136
0,242000	1,589050	4,999847
0,243000	1,551361	4,999847
0,244000	1,551971	4,999847
0,245000	1,599579	4,999847
0,246000	1,520386	4,999847
0,247000	1,643219	4,999847
0,248000	1,492615	4,869080
0,249000	1,682739	4,658813
0,250000	1,467285	2,831268
0,251000	1,717834	4,132690
0,252000	1,447906	3,398895
0,253000	1,708527	4,999847
0,254000	1,503601	4,999847
0,255000	1,663513	4,999847
0,256000	1,561737	4,999847
0,257000	1,622620	4,999847
0,258000	1,612396	4,229126
0,259000	1,586914	3,350525
0,260000	1,659088	3,553314
0,261000	1,556854	3,963623
0,262000	1,702118	4,999847
0,263000	1,529999	4,999847
0,264000	1,740723	4,999847
0,265000	1,506500	4,999847
0,266000	1,775818	4,999847
0,267000	1,507111	4,999847
0,268000	1,740112	4,999847
0,269000	1,567993	4,777374
0,270000	1,696777	3,813171
0,271000	1,624908	3,848572
0,272000	1,659088	4,187012
0,273000	1,676788	4,999847
0,274000	1,626129	4,999847
0,275000	1,722870	4,999847
0,276000	1,596832	4,999847
0,277000	1,764374	4,999847
0,278000	1,571808	4,953461
0,279000	1,802063	3,250275
0,280000	1,548767	3,142700
0,281000	1,820068	3,185120
0,282000	1,573792	4,999847
0,283000	1,774139	4,999847
0,284000	1,634827	4,999847
0,285000	1,731873	4,999847
0,286000	1,688843	4,999847
0,287000	1,695099	4,999847
0,288000	1,738129	4,999847
0,289000	1,663361	4,454041
0,290000	1,782990	2,227325
0,291000	1,635590	4,999847
0,292000	1,823425	4,345856
0,293000	1,611328	4,999847
0,294000	1,860199	4,999847
0,295000	1,590271	4,999847
0,296000	1,855774	4,999847
0,297000	1,641998	4,999847
0,298000	1,810760	4,758606
0,299000	1,701813	3,790741
0,300000	1,771088	2,301178
0,301000	1,684265	4,999847
0,302000	1,647797	4,999847
0,303000	1,747894	4,999847
0,304000	1,680298	4,999847
0,305000	1,835632	4,999847
0,306000	1,674652	4,999847
0,307000	1,885681	4,999847
0,308000	1,656952	4,999847
0,309000	1,926880	3,831329
0,310000	1,654205	2,585602
0,311000	1,900940	4,370270
0,312000	1,716156	3,091736
0,313000	1,858215	4,999847
0,314000	1,772919	4,999847
0,315000	1,820831	4,999847
0,316000	1,824799	4,999847
0,317000	1,787720	4,999847
0,318000	1,871948	4,999847
0,319000	1,759033	3,680573
0,320000	1,915283	3,390045
0,321000	1,731720	4,999847
0,322000	1,957855	4,094391
0,323000	1,710510	4,999847
0,324000	1,989746	4,999847
0,325000	1,729889	4,999847
0,326000	1,950226	4,999847
0,327000	1,790466	4,999847
0,328000	1,910553	4,999847
0,329000	1,844635	4,404602
0,330000	1,876373	3,335724
0,331000	1,897278	3,715363
0,332000	1,844330	3,118286
0,333000	1,944885	4,999847
0,334000	1,815338	4,999847
0,335000	1,992187	4,999847
0,336000	1,790466	4,999847
0,337000	2,037201	4,999847
0,338000	1,768341	4,999847
0,339000	2,045593	3,420715
0,340000	1,813660	4,041901
0,341000	2,007446	3,916168
0,342000	1,872253	4,999847
0,343000	1,972961	4,999847
0,344000	1,927795	4,999847
0,345000	1,940765	4,999847
0,346000	1,980743	4,999847
0,347000	1,912079	4,999847
0,348000	1,809845	4,999847
0,349000	1,810760	4,152069
0,350000	1,811066	2,179718
0,351000	1,812897	4,135895
0,352000	2,094879	3,700256
0,353000	1,866760	4,999847
0,354000	2,057037	4,999847
0,355000	1,925659	4,999847
0,356000	2,022400	4,999847
0,357000	1,982880	4,999847
0,358000	1,991730	4,999847
0,359000	2,038879	3,096466
0,360000	1,964722	3,161163
0,361000	2,090912	4,495087
0,362000	1,936798	4,999847
0,363000	2,139282	4,999847
0,364000	1,913452	4,999847
0,365000	2,180786	4,999847
0,366000	1,903839	4,999847
0,367000	2,151489	4,999847
0,368000	1,963043	4,999847
0,369000	2,110901	3,539886
0,370000	2,020416	2,355804
0,371000	2,075195	4,063873
0,372000	2,075348	3,010864
0,373000	2,041473	4,999847
0,374000	2,125244	4,999847
0,375000	2,011108	4,999847
0,376000	2,171936	4,999847
0,377000	1,983032	4,999847
0,378000	2,206726	4,685516
0,379000	1,957397	3,619232
0,380000	2,214813	3,479309
0,381000	1,970520	4,999847
0,382000	2,164764	4,430695
0,383000	2,029572	4,999847
0,384000	2,124481	4,999847
0,385000	2,086792	4,999847
0,386000	2,090302	4,999847
0,387000	2,139740	4,999847
0,388000	2,059326	4,999847
0,389000	2,186279	3,526611
0,390000	2,031860	4,249420
0,391000	2,218781	4,131317
0,392000	2,006836	2,773743
0,393000	2,234344	4,999847
0,394000	1,984406	4,999847
0,395000	1,826019	4,999847
0,396000	1,747131	4,999847
0,397000	1,714325	4,999847
0,398000	1,700745	4,611816
0,399000	1,694946	3,265228
0,400000	1,691437	3,307190
0,401000	1,689911	4,160309
0,402000	1,688995	4,527130
0,403000	1,634064	4,999847
0,404000	1,611023	4,999847
0,405000	1,607361	4,999847
0,406000	1,654816	4,999847
0,407000	1,674347	4,999847
0,408000	1,682129	4,999847
0,409000	1,685333	4,094696
0,410000	1,686859	3,495026
0,411000	1,687469	3,373871
0,412000	1,687775	4,559021
0,413000	1,687927	4,999847
0,414000	1,687775	4,999847
0,415000	1,480103	4,999847
0,416000	1,210632	4,999847
0,417000	1,092834	4,999847
0,418000	1,040955	4,563751
0,419000	1,030884	3,681793
0,420000	1,008911	3,974304
0,421000	1,027832	3,342438
0,422000	1,001892	4,999847
0,423000	1,034851	4,999847
0,424000	0,995941	4,999847
0,425000	1,041107	4,999847
0,426000	0,996704	4,999847
0,427000	1,040649	4,999847
0,428000	1,009521	4,999847
0,429000	1,035461	4,470062
0,430000	1,021576	4,127655
0,431000	1,030121	3,372192
0,432000	1,031952	3,022308
0,433000	1,023560	4,999847
0,434000	1,042938	4,999847
0,435000	1,018372	4,999847
0,436000	1,053619	4,999847
0,437000	1,014099	4,999847
0,438000	1,064453	4,233246
0,439000	1,009827	3,086243
0,440000	1,073608	3,809509
0,441000	1,014862	3,933563
0,442000	1,065216	4,999847
0,443000	1,030426	4,999847
0,444000	1,056061	4,999847
0,445000	1,044464	4,999847
0,446000	1,048737	4,999847
0,447000	1,059875	4,999847
0,448000	1,042175	4,999847
0,449000	1,073608	3,914795
0,450000	1,036072	4,999847
0,451000	1,086884	3,068542
0,452000	1,030121	3,549042
0,453000	1,098938	4,999847
0,454000	1,023865	4,999847
0,455000	1,101990	4,999847
0,456000	1,037445	4,999847
0,457000	1,090851	4,999847
0,458000	1,056366	4,999847
0,459000	1,080017	3,159332
0,460000	1,074219	3,350983
0,461000	1,069183	4,999847
0,462000	1,089020	4,999847
0,463000	1,059875	4,999847
0,464000	1,104889	4,999847
0,465000	1,051178	4,999847
0,466000	1,120148	4,999847
0,467000	1,043091	4,999847
0,468000	1,134491	4,999847
0,469000	1,039581	4,999847
0,470000	1,128387	3,247070
0,471000	1,061401	4,037476
0,472000	1,113586	2,957001
0,473000	1,083069	4,999847
0,474000	1,101379	4,999847
0,475000	1,104279	4,999847
0,476000	1,089020	4,999847
0,477000	1,122437	4,999847
0,478000	1,077881	4,846344
0,479000	1,140747	3,683624
0,480000	1,067505	3,783722
0,481000	1,157074	3,324738
0,482000	1,058197	4,999847
0,483000	1,171570	4,999847
0,484000	1,063995	4,999847
0,485000	1,154785	4,999847
0,486000	1,089478	4,999847
0,487000	1,137695	4,999847
0,488000	1,113739	4,796143
0,489000	1,121674	3,756561
0,490000	1,136017	4,236298
0,491000	1,107178	3,262024
0,492000	1,157379	3,936157
0,493000	1,093903	4,999847
0,494000	1,176453	4,999847
0,495000	1,082001	4,999847
0,496000	1,194611	4,999847
0,497000	1,071014	4,999847
0,498000	1,200104	3,696442
0,499000	1,090240	3,238068
0,500000	1,178894	3,311310
0,501000	1,118622	3,329926
0,502000	1,158295	4,621887
0,503000	1,144867	4,999847
0,504000	1,140900	4,999847
0,505000	1,154022	4,999847
0,506000	1,056213	4,999847
0,507000	1,117554	4,999847
0,508000	1,053162	4,706726
0,509000	1,190643	3,941040
0,510000	1,086121	2,253876
0,511000	1,230164	4,760742
0,512000	1,086273	3,666687
0,513000	1,225128	4,999847
0,514000	1,119080	4,999847
0,515000	1,201935	4,999847
0,516000	1,150513	4,999847
0,517000	1,179199	4,999847
0,518000	1,179504	4,811554
0,519000	1,158905	3,489685
0,520000	1,205902	2,713623
0,521000	1,141357	4,571075
0,522000	1,229401	4,999847
0,523000	1,124420	4,999847
0,524000	1,253204	4,999847
0,525000	1,109619	4,999847
0,526000	1,274109	4,999847
0,527000	1,114655	4,999847
0,528000	1,249542	4,999847
0,529000	1,149750	4,670868
0,530000	1,222382	3,329468
0,531000	1,184235	3,865204
0,532000	1,197815	3,154602
0,533000	1,214600	4,357147
0,534000	1,176910	4,999847
0,535000	1,243744	4,999847
0,536000	1,156464	4,999847
0,537000	1,268768	4,999847
0,538000	1,138916	4,430389
0,539000	1,294403	4,378815
0,540000	1,123810	4,244690
0,541000	1,302490	3,533478
0,542000	1,146240	4,999847
0,543000	1,270905	4,999847
0,544000	1,184235	4,999847
0,545000	1,243134	4,999847
0,546000	1,220551	4,999847
0,547000	1,217346	4,999847
0,548000	1,253204	4,999847
0,549000	1,193848	4,231262
0,550000	1,283569	2,892761
0,551000	1,173553	4,671326
0,552000	1,311188	3,807831
0,553000	1,154633	4,999847
0,554000	1,336670	4,999847
0,555000	1,141052	4,999847
0,556000	1,327972	4,999847
0,557000	1,180878	4,999847
0,558000	1,294098	4,999847
0,559000	1,222229	3,027039
0,560000	1,263580	3,295135
0,561000	1,259155	2,766876
0,562000	1,235962	4,236298
0,563000	1,293640	4,999847
0,564000	1,211853	4,999847
0,565000	1,324921	4,999847
0,566000	1,189880	4,999847
0,567000	1,353607	4,999847
0,568000	1,170197	4,999847
0,569000	1,380157	4,188385
0,570000	1,172485	2,893066
0,571000	1,350250	4,942780
0,572000	1,218262	3,552551
0,573000	1,315155	4,999847
0,574000	1,261139	4,999847
0,575000	1,283417	4,999847
0,576000	1,299896	4,999847
0,577000	1,254730	4,999847
0,578000	1,335297	4,999847
0,579000	1,229248	3,948975
0,580000	1,367950	2,294464
0,581000	1,206818	4,067078
0,582000	1,397552	4,999847
0,583000	1,186981	4,999847
0,584000	1,411591	4,999847
0,585000	1,210785	4,999847
0,586000	1,372528	4,999847
0,587000	1,258850	4,999847
0,588000	1,335754	4,999847
0,589000	1,302643	3,836060
0,590000	1,303101	3,167877
0,591000	1,343079	4,620972
0,592000	1,273804	3,316498
0,593000	1,379089	4,999847
0,594000	1,248627	4,999847
0,595000	1,412811	4,999847
0,596000	1,225891	4,999847
0,597000	1,442719	4,999847
0,598000	1,206512	4,999847
0,599000	1,435699	2,477722
0,600000	1,253357	4,156036
0,601000	1,394348	3,555145
0,602000	1,302795	4,136353
0,603000	1,328278	4,999847
0,604000	1,320190	4,999847
0,605000	1,313324	4,999847
0,606000	1,383820	4,999847
0,607000	1,293640	4,999847
0,608000	1,355896	4,999847
0,609000	1,226959	4,795837
0,610000	1,441650	4,999847
0,611000	1,239929	3,373718
0,612000	1,487579	2,567291
0,613000	1,244812	4,999847
0,614000	1,459503	4,999847
0,615000	1,298828	4,999847
0,616000	1,417236	4,999847
0,617000	1,350250	4,999847
0,618000	1,381073	4,999847
0,619000	1,395111	3,291779
0,620000	1,326447	2,434692
0,621000	1,391907	4,149475
0,622000	1,300354	4,999847
0,623000	1,466370	4,999847
0,624000	1,291351	4,999847
0,625000	1,508484	4,999847
0,626000	1,271973	4,999847
0,627000	1,529236	4,999847
0,628000	1,296082	4,999847
0,629000	1,486053	3,598022
0,630000	1,338806	4,320068
0,631000	1,407471	4,118652
0,632000	1,380463	3,466492
0,633000	1,399078	4,703674
0,634000	1,444397	4,999847
0,635000	1,374817	4,999847
0,636000	1,489105	4,999847
0,637000	1,347656	4,999847
0,638000	1,527557	4,652252
0,639000	1,323700	3,247070
0,640000	1,562347	3,824921
0,641000	1,301117	3,452911
0,642000	1,558228	4,062042
0,643000	1,351166	4,999847
0,644000	1,513519	4,999847
0,645000	1,407318	4,999847
0,646000	1,473236	4,999847
0,647000	1,457520	4,999847
0,648000	1,438446	4,999847
0,649000	1,503448	4,720306
0,650000	1,407166	3,731537
0,651000	1,545105	3,299408
0,652000	1,380310	4,104462
0,653000	1,582489	4,999847
0,654000	1,356659	4,999847
0,655000	1,616516	4,999847
0,656000	1,351776	4,999847
0,657000	1,587982	4,999847
0,658000	1,411133	4,999847
0,659000	1,543884	3,256226
0,660000	1,466064	3,748932
0,661000	1,504669	2,829437
0,662000	1,515045	4,893799
0,663000	1,470490	4,999847
0,664000	1,560516	4,999847
0,665000	1,441040	4,999847
0,666000	1,602173	4,999847
0,667000	1,415558	4,999847
0,668000	1,639099	4,687042
0,669000	1,391907	4,044495
0,670000	1,662598	3,771362
0,671000	1,413269	2,545471
0,672000	1,618500	3,472748
0,673000	1,473236	4,999847
0,674000	1,576233	4,999847
0,675000	1,527710	4,999847
0,676000	1,539001	4,999847
0,677000	1,576080	4,999847
0,678000	1,506348	4,999847
0,679000	1,620483	3,425903
0,680000	1,477814	3,727264
0,681000	1,660767	3,762665
0,682000	1,453705	4,999847
0,683000	1,697083	4,999847
0,684000	1,432648	4,999847
0,685000	1,697540	4,999847
0,686000	1,478729	4,999847
0,687000	1,650848	4,999847
0,688000	1,536255	4,999847
0,689000	1,610107	3,879852
0,690000	1,589508	4,457550
0,691000	1,575012	2,718048
0,692000	1,637421	4,486847
0,693000	1,543884	4,999847
0,694000	1,680450	4,999847
0,695000	1,515808	4,999847
0,696000	1,718903	4,999847
0,697000	1,490784	4,999847
0,698000	1,753845	4,999847
0,699000	1,483917	3,819427
0,700000	1,729889	3,963776
0,701000	1,544647	3,914490
0,702000	1,683960	4,999847
0,703000	1,599579	4,999847
0,704000	1,645508	4,999847
0,705000	1,652832	4,999847
0,706000	1,612091	4,999847
0,707000	1,699371	4,999847
0,708000	1,582336	4,999847
0,709000	1,740265	4,782715
0,710000	1,518555	4,639435
0,711000	1,698303	4,019928
0,712000	1,494751	3,919067
0,713000	1,790619	4,705811
0,714000	1,542664	4,999847
0,715000	1,759949	4,999847
0,716000	1,609039	4,999847
0,717000	1,719208	4,999847
0,718000	1,665497	4,999847
0,719000	1,682892	4,384460
0,720000	1,715546	4,071808
0,721000	1,650543	3,105164
0,722000	1,761322	4,999847
0,723000	1,622162	4,999847
0,724000	1,802216	4,999847
0,725000	1,597748	4,999847
0,726000	1,839294	4,999847
0,727000	1,575317	4,999847
0,728000	1,843719	4,999847
0,729000	1,617279	3,511353
0,730000	1,798401	2,941895
0,731000	1,676788	4,562531
0,732000	1,757202	4,503937
0,733000	1,730957	4,999847
0,734000	1,722107	4,999847
0,735000	1,778564	4,999847
0,736000	1,690521	4,999847
0,737000	1,823578	4,999847
0,738000	1,664581	4,999847
0,739000	1,863403	4,025726
0,740000	1,641846	4,149017
0,741000	1,902313	3,270569
0,742000	1,627045	4,526978
0,743000	1,883698	4,999847
0,744000	1,688232	4,999847
0,745000	1,840668	4,999847
0,746000	1,746521	4,999847
0,747000	1,802368	4,999847
0,748000	1,798706	4,999847
0,749000	1,767426	4,397736
0,750000	1,844025	3,381348
0,751000	1,737213	3,510590
0,752000	1,888428	4,805908
0,753000	1,713104	4,999847
0,754000	1,931915	4,999847
0,755000	1,691589	4,999847
0,756000	1,967773	4,999847
0,757000	1,701050	4,999847
0,758000	1,931000	4,999847
0,759000	1,763000	4,237518
0,760000	1,891632	4,100037
0,761000	1,817474	3,028259
0,762000	1,854095	3,929596
0,763000	1,868591	4,999847
0,764000	1,822510	4,999847
0,765000	1,916962	4,999847
0,766000	1,794281	4,999847
0,767000	1,962891	4,999847
0,768000	1,769257	4,999847
0,769000	2,007904	4,271088
0,770000	1,747589	3,981018
0,771000	2,024384	3,948517
0,772000	1,781616	4,264679
0,773000	1,986237	4,980469
0,774000	1,842041	4,999847
0,775000	1,950836	4,999847
0,776000	1,896515	4,999847
0,777000	1,918182	4,999847
0,778000	1,949310	4,975586
0,779000	1,887512	3,438263
0,780000	1,999969	3,315125
0,781000	1,860352	4,880219
0,782000	2,047729	4,999847
0,783000	1,836090	4,999847
0,784000	2,095184	4,999847
0,785000	1,813354	4,999847
0,786000	1,812134	4,999847
0,787000	1,812592	4,999847
0,788000	1,812744	4,999847
0,789000	2,077789	4,597473
0,790000	1,855469	3,423004
0,791000	2,122192	4,999847
0,792000	1,843109	3,919525
0,793000	2,102509	4,999847
0,794000	1,902924	4,999847
0,795000	2,066650	4,999847
0,796000	1,962738	4,999847
0,797000	2,033234	4,973145
0,798000	2,019348	4,999847
0,799000	2,002258	3,371887
0,800000	2,072906	3,118286
0,801000	1,973419	3,375092
0,802000	2,123108	4,999847
0,803000	1,946411	4,999847
0,804000	2,167969	4,999847
0,805000	1,921844	4,999847
0,806000	2,192993	4,999847
0,807000	1,932526	4,999847
0,808000	2,148895	4,999847
0,809000	1,992493	3,554230
0,810000	2,108917	3,569031
0,811000	2,048645	3,807983
0,812000	2,073212	3,910828
0,813000	2,013092	4,999847
0,814000	1,996765	4,999847
0,815000	2,124786	4,999847
0,816000	2,006073	4,999847
0,817000	2,190094	4,999847
0,818000	1,983948	4,999847
0,819000	2,219696	2,900391
0,820000	1,958771	2,703552
0,821000	2,203369	4,178314
0,822000	1,997223	4,999847
0,823000	2,157288	4,999847
0,824000	2,056732	4,999847
0,825000	2,119446	4,999847
0,826000	2,113037	4,999847
0,827000	2,087402	4,999847
0,828000	2,164154	4,999847
0,829000	2,057648	3,555908
0,830000	2,205200	3,568726
0,831000	2,031860	3,773499
0,832000	1,856537	3,989563
0,833000	1,761169	4,999847
0,834000	1,719360	4,999847
0,835000	1,702576	4,999847
0,836000	1,696014	4,999847
0,837000	1,692963	4,999847
0,838000	1,691132	4,673157
0,839000	1,690979	3,415833
0,840000	1,690826	3,957672
0,841000	1,688995	3,729858
0,842000	1,688690	4,766846
0,843000	1,688080	4,999847
0,844000	1,688080	4,999847
0,845000	1,688232	4,999847
0,846000	1,687927	4,999847
0,847000	1,687927	4,999847
0,848000	1,687927	4,999847
0,849000	1,687927	3,359833
0,850000	1,688080	3,224945
0,851000	1,687927	4,154968
0,852000	1,687927	3,285675
0,853000	1,492462	4,961853
0,854000	1,217346	4,999847
0,855000	1,093140	4,999847
0,856000	1,043091	4,999847
0,857000	1,029510	4,999847
0,858000	1,010437	4,999847
0,859000	1,026764	3,744049
0,860000	1,002960	4,020538
0,861000	1,033936	3,761597
0,862000	0,999298	3,966217
0,863000	1,042023	4,999847
0,864000	0,996552	4,999847
0,865000	1,043396	4,999847
0,866000	1,007080	4,999847
0,867000	1,037292	4,999847
0,868000	1,018982	4,999847
0,869000	1,032104	3,979340
0,870000	1,030579	3,858337
0,871000	1,026917	2,883759
0,872000	1,042480	3,830872
0,873000	1,022034	4,999847
0,874000	1,053619	4,999847
0,875000	1,016388	4,999847
0,876000	1,063995	4,999847
0,877000	1,011810	4,999847
0,878000	1,074371	4,598541
0,879000	1,012268	2,978668
0,880000	1,068115	2,929382
0,881000	1,027222	4,208374
0,882000	1,059723	4,999847
0,883000	1,041718	4,999847
0,884000	1,051025	4,999847
0,885000	1,055756	4,999847
0,886000	1,043549	4,999847
0,887000	1,070099	4,999847
0,888000	1,036835	4,999847
0,889000	1,082611	4,482269
0,890000	1,030579	4,234772
0,891000	1,095428	2,981567
0,892000	1,024780	3,814392
0,893000	1,104584	4,336700
0,894000	1,032104	4,999847
0,895000	1,092834	4,999847
0,896000	1,050568	4,999847
0,897000	1,082458	4,999847
0,898000	1,069946	4,179840
0,899000	1,073303	3,719635
0,900000	1,087189	3,599854
0,901000	1,063843	3,139648
0,902000	1,102448	4,828186
0,903000	1,054687	4,999847
0,904000	1,118622	4,999847
0,905000	1,046600	4,999847
0,906000	1,133270	4,999847
0,907000	1,039734	4,999847
0,908000	1,135254	4,967194
0,909000	1,057739	3,577423
0,910000	1,119995	3,740082
0,911000	1,079254	4,577332
0,912000	1,105499	4,999847
0,913000	1,100616	4,999847
0,914000	1,092834	4,999847
0,915000	1,061554	4,999847
0,916000	1,001892	4,999847
0,917000	1,087341	4,999847
0,918000	1,049194	4,113617
0,919000	1,143951	3,966064
0,920000	1,055756	4,290771
0,921000	1,167755	4,131165
0,922000	1,057587	4,896698
0,923000	1,160431	4,999847
0,924000	1,083679	4,999847
0,925000	1,141357	4,999847
0,926000	1,106873	4,999847
0,927000	1,124420	4,999847
0,928000	1,129303	4,999847
0,929000	1,110840	4,246521
0,930000	1,150818	3,481750
0,931000	1,096039	2,891083
0,932000	1,171265	3,368683
0,933000	1,085358	4,999847
0,934000	1,190948	4,999847
0,935000	1,074371	4,999847
0,936000	1,205139	4,999847
0,937000	1,082001	4,999847
0,938000	1,183319	4,670563
0,939000	1,111298	3,796234
0,940000	1,164093	2,152405
0,941000	1,139679	4,422760
0,942000	1,144867	4,999847
0,943000	1,164246	4,999847
0,944000	1,127777	4,999847
0,945000	1,186218	4,999847
0,946000	1,112061	4,999847
0,947000	1,207886	4,999847
0,948000	1,098633	4,994812
0,949000	1,228180	4,770966
0,950000	1,085510	2,895203
0,951000	1,231842	4,749451
0,952000	1,111145	3,769379
0,953000	1,207123	4,999847
0,954000	1,141663	4,999847
0,955000	1,183472	4,999847
0,956000	1,171417	4,999847
0,957000	1,163177	4,999847
0,958000	1,199036	4,517975
0,959000	1,145477	2,961426
0,960000	1,225281	2,500153
0,961000	1,129456	4,361267
0,962000	1,248627	4,999847
0,963000	1,114349	4,999847
0,964000	1,270447	4,999847
0,965000	1,107483	4,999847
0,966000	1,257629	4,999847
0,967000	1,140289	4,999847
0,968000	1,229401	4,646759
0,969000	1,176453	4,469147
0,970000	1,205444	3,606567
0,971000	1,208649	3,279114
0,972000	1,182709	4,018860
0,973000	1,237488	4,726868
0,974000	1,161957	4,999847
0,975000	1,263885	4,999847
0,976000	1,144409	4,999847
0,977000	1,289825	4,999847
0,978000	1,128235	4,018555
0,979000	1,310425	4,065552
0,980000	1,136780	3,709259
0,981000	1,280670	3,820801
0,982000	1,174774	4,999847
0,983000	1,250153	4,999847
0,984000	1,212158	4,999847
0,985000	1,224823	4,999847
0,986000	1,246338	4,999847
0,987000	1,200714	4,999847
0,988000	1,275482	4,999847
0,989000	1,177673	4,397430
0,990000	1,303406	3,082428
0,991000	1,157990	3,645782
0,992000	1,329193	3,434143
0,993000	1,140747	4,999847
0,994000	1,336212	4,999847
0,995000	1,168823	4,999847
0,996000	1,301880	4,999847
0,997000	1,211090	4,999847
0,998000	1,270599	4,437714
0,999000	1,250305	3,462219

