LabVIEW Measurement	
Writer_Version	2
Reader_Version	2
Separator	Tab
Decimal_Separator	,
Multi_Headings	Yes
X_Columns	One
Time_Pref	Absolute
Operator	d.nicolai
Date	2023/11/09
Time	16:04:05,6565121999996605588
***End_of_Header***	
	
Channels	2		
Samples	1000	1000	
Date	2023/11/09	2023/11/09	
Time	16:04:05,6565121999996605588	16:04:05,6565121999996605588	
Y_Unit_Label	Volts	Volts	
X_Dimension	Time	Time	
X0	0,0000000000000000E+0	0,0000000000000000E+0	
Delta_X	0,001000	0,001000	
***End_of_Header***			
X_Value	powebox	triggerbox	Comment
0,000000	0,592194	0,618439
0,001000	0,593567	4,999847
0,002000	0,591431	4,999847
0,003000	0,599060	4,999847
0,004000	0,595398	4,699860
0,005000	0,599060	4,237366
0,006000	0,596313	4,188080
0,007000	0,596619	3,950958
0,008000	0,594177	4,722137
0,009000	0,597229	4,999847
0,010000	0,596008	4,999847
0,011000	0,593414	4,999847
0,012000	0,585327	4,999847
0,013000	0,587311	4,999847
0,014000	0,592804	4,999847
0,015000	0,590973	4,438019
0,016000	0,583801	3,269043
0,017000	0,575867	4,024506
0,018000	0,578003	3,605347
0,019000	0,578156	4,999847
0,020000	0,584412	4,999847
0,021000	0,583344	4,999847
0,022000	0,585632	4,999847
0,023000	0,582886	4,999847
0,024000	0,579987	4,999847
0,025000	0,579834	3,476105
0,026000	0,580597	3,983459
0,027000	0,581818	3,409424
0,028000	0,582275	4,999847
0,029000	0,588837	4,999847
0,030000	0,587158	4,999847
0,031000	0,590515	4,999847
0,032000	0,585480	4,999847
0,033000	0,587006	4,999847
0,034000	0,582428	4,999847
0,035000	0,581512	4,052124
0,036000	0,583496	3,880615
0,037000	0,584106	4,796600
0,038000	0,581512	3,676300
0,039000	0,579224	4,999847
0,040000	0,581818	4,999847
0,041000	0,580902	4,999847
0,042000	0,586090	4,999847
0,043000	0,584564	4,999847
0,044000	0,592346	4,746094
0,045000	0,587158	3,523254
0,046000	0,591736	3,847351
0,047000	0,583496	3,026886
0,048000	0,586853	4,999847
0,049000	0,580750	4,999847
0,050000	0,587006	4,999847
0,051000	0,586548	4,999847
0,052000	0,584869	4,999847
0,053000	0,586395	4,999847
0,054000	0,543823	4,678497
0,055000	0,560455	4,432983
0,056000	0,568848	4,697266
0,057000	0,582886	4,854584
0,058000	0,570831	4,605713
0,059000	0,585937	4,999847
0,060000	0,577850	4,999847
0,061000	0,594177	4,999847
0,062000	0,590973	4,999847
0,063000	0,600739	4,999847
0,064000	0,596313	4,472351
0,065000	0,598907	2,759094
0,066000	0,598755	3,416443
0,067000	0,598297	3,273621
0,068000	0,601349	4,690399
0,069000	0,595703	4,999847
0,070000	0,602112	4,999847
0,071000	0,595551	4,999847
0,072000	0,606537	4,999847
0,073000	0,592499	4,999847
0,074000	0,608368	4,999847
0,075000	0,590363	3,548889
0,076000	0,606079	3,263855
0,077000	0,591736	4,999847
0,078000	0,603638	3,788605
0,079000	0,600739	4,999847
0,080000	0,603027	4,999847
0,081000	0,603943	4,999847
0,082000	0,594788	4,999847
0,083000	0,599670	4,999847
0,084000	0,585022	4,999847
0,085000	0,601501	3,753815
0,086000	0,583038	4,400177
0,087000	0,607758	3,489685
0,088000	0,583038	4,999847
0,089000	0,613403	4,999847
0,090000	0,588684	4,999847
0,091000	0,610352	4,999847
0,092000	0,594635	4,999847
0,093000	0,606689	4,999847
0,094000	0,601501	4,813843
0,095000	0,603180	4,999847
0,096000	0,608063	4,093781
0,097000	0,601349	4,151917
0,098000	0,615234	4,194183
0,099000	0,600586	4,717407
0,100000	0,622101	4,999847
0,101000	0,600128	4,999847
0,102000	0,629272	4,999847
0,103000	0,599365	4,999847
0,104000	0,631561	4,999847
0,105000	0,605927	4,025879
0,106000	0,627594	4,251251
0,107000	0,613098	3,980560
0,108000	0,622406	4,999847
0,109000	0,620880	4,999847
0,110000	0,620117	4,999847
0,111000	0,628052	4,999847
0,112000	0,617371	4,999847
0,113000	0,634460	4,999847
0,114000	0,613556	4,856873
0,115000	0,640717	4,860382
0,116000	0,610809	3,518372
0,117000	0,646515	4,405365
0,118000	0,608826	4,510651
0,119000	0,645447	4,999847
0,120000	0,619049	4,999847
0,121000	0,640411	4,999847
0,122000	0,628815	4,999847
0,123000	0,635834	4,999847
0,124000	0,636597	4,942780
0,125000	0,630035	3,712158
0,126000	0,643463	3,937073
0,127000	0,627136	3,849030
0,128000	0,651093	4,999847
0,129000	0,622864	4,999847
0,130000	0,657501	4,999847
0,131000	0,617523	4,999847
0,132000	0,663757	4,999847
0,133000	0,620575	4,999847
0,134000	0,656586	4,999847
0,135000	0,630341	4,951172
0,136000	0,648499	2,817230
0,137000	0,638275	4,220276
0,138000	0,643005	4,582367
0,139000	0,647125	4,999847
0,140000	0,636597	4,999847
0,141000	0,656128	4,999847
0,142000	0,632324	4,999847
0,143000	0,664673	4,999847
0,144000	0,625153	4,404602
0,145000	0,670319	4,431305
0,146000	0,622559	4,084167
0,147000	0,676727	3,659821
0,148000	0,629730	4,518890
0,149000	0,666351	4,999847
0,150000	0,640717	4,999847
0,151000	0,659180	4,999847
0,152000	0,652618	4,999847
0,153000	0,652161	4,999847
0,154000	0,661621	4,892120
0,155000	0,633545	4,872589
0,156000	0,644379	2,972260
0,157000	0,600586	4,860382
0,158000	0,661926	3,517303
0,159000	0,620728	4,999847
0,160000	0,682220	4,999847
0,161000	0,621948	4,999847
0,162000	0,684357	4,999847
0,163000	0,639954	4,999847
0,164000	0,676270	4,411163
0,165000	0,653839	3,694305
0,166000	0,666809	2,349548
0,167000	0,664062	3,205719
0,168000	0,658875	4,999847
0,169000	0,677032	4,999847
0,170000	0,653992	4,999847
0,171000	0,689240	4,999847
0,172000	0,648193	4,999847
0,173000	0,699005	4,999847
0,174000	0,642242	4,999847
0,175000	0,708008	4,702911
0,176000	0,646362	4,194794
0,177000	0,702667	3,285675
0,178000	0,656433	3,756866
0,179000	0,689850	4,432220
0,180000	0,670166	4,999847
0,181000	0,679169	4,999847
0,182000	0,682068	4,999847
0,183000	0,671997	4,999847
0,184000	0,697021	4,483185
0,185000	0,665741	4,389191
0,186000	0,709229	4,322815
0,187000	0,658875	4,346619
0,188000	0,719147	4,999847
0,189000	0,649414	4,999847
0,190000	0,727386	4,999847
0,191000	0,662994	4,999847
0,192000	0,718384	4,999847
0,193000	0,677643	4,999847
0,194000	0,706635	4,999847
0,195000	0,692444	4,096680
0,196000	0,697937	2,945099
0,197000	0,707397	4,907837
0,198000	0,688019	3,922729
0,199000	0,718842	4,999847
0,200000	0,677338	4,999847
0,201000	0,728912	4,999847
0,202000	0,671082	4,999847
0,203000	0,740814	4,999847
0,204000	0,667419	4,151459
0,205000	0,749664	4,137421
0,206000	0,682678	3,276520
0,207000	0,736084	3,385468
0,208000	0,699921	4,999847
0,209000	0,725250	4,999847
0,210000	0,715790	4,999847
0,211000	0,714874	4,999847
0,212000	0,729370	4,999847
0,213000	0,699158	4,999847
0,214000	0,736847	4,999847
0,215000	0,685425	4,479370
0,216000	0,747528	3,993378
0,217000	0,676422	3,919220
0,218000	0,758667	3,406677
0,219000	0,682068	4,999847
0,220000	0,764618	4,999847
0,221000	0,699921	4,999847
0,222000	0,752258	4,999847
0,223000	0,719452	4,999847
0,224000	0,732422	4,999847
0,225000	0,727844	3,366394
0,226000	0,718079	2,302399
0,227000	0,743256	4,146576
0,228000	0,708160	4,999847
0,229000	0,756836	4,999847
0,230000	0,697327	4,999847
0,231000	0,768433	4,999847
0,232000	0,683441	4,999847
0,233000	0,778809	4,999847
0,234000	0,701599	4,999847
0,235000	0,784912	4,187317
0,236000	0,720978	3,177643
0,237000	0,769196	4,584961
0,238000	0,739899	3,417511
0,239000	0,754242	4,999847
0,240000	0,755005	4,999847
0,241000	0,741425	4,999847
0,242000	0,768585	4,999847
0,243000	0,730133	4,999847
0,244000	0,783386	4,999847
0,245000	0,726013	3,103333
0,246000	0,800476	3,701477
0,247000	0,717010	3,935852
0,248000	0,815277	4,999847
0,249000	0,738220	4,999847
0,250000	0,819397	4,999847
0,251000	0,755463	4,999847
0,252000	0,803986	4,999847
0,253000	0,771484	4,999847
0,254000	0,788422	4,847717
0,255000	0,788269	4,210510
0,256000	0,774384	3,405304
0,257000	0,800629	4,999847
0,258000	0,748749	3,073883
0,259000	0,773621	4,999847
0,260000	0,697937	4,999847
0,261000	0,803528	4,999847
0,262000	0,726471	4,999847
0,263000	0,830841	4,999847
0,264000	0,747986	4,999847
0,265000	0,829926	3,960876
0,266000	0,770264	4,517975
0,267000	0,811005	3,923645
0,268000	0,786285	4,999847
0,269000	0,795135	4,999847
0,270000	0,802155	4,999847
0,271000	0,778351	4,999847
0,272000	0,818787	4,999847
0,273000	0,764008	4,999847
0,274000	0,832825	4,999847
0,275000	0,747833	4,380646
0,276000	0,846405	3,886261
0,277000	0,760803	3,372650
0,278000	0,856934	3,327179
0,279000	0,779266	4,999847
0,280000	0,845490	4,999847
0,281000	0,793152	4,999847
0,282000	0,825958	4,999847
0,283000	0,810547	4,999847
0,284000	0,807800	4,999847
0,285000	0,826569	4,124756
0,286000	0,793152	3,211823
0,287000	0,842285	4,361572
0,288000	0,776520	4,788513
0,289000	0,743713	4,999847
0,290000	0,733337	4,999847
0,291000	0,729218	4,999847
0,292000	0,848694	4,999847
0,293000	0,777435	4,999847
0,294000	0,862885	4,842834
0,295000	0,787201	3,472595
0,296000	0,850983	3,754272
0,297000	0,805054	4,778137
0,298000	0,830383	4,022064
0,299000	0,818634	4,718170
0,300000	0,806122	4,999847
0,301000	0,831146	4,999847
0,302000	0,783234	4,999847
0,303000	0,840454	4,999847
0,304000	0,767975	4,401703
0,305000	0,850220	2,608185
0,306000	0,765839	4,005890
0,307000	0,857239	3,753510
0,308000	0,786285	4,875793
0,309000	0,856934	4,999847
0,310000	0,805511	4,999847
0,311000	0,851440	4,999847
0,312000	0,823822	4,999847
0,313000	0,829773	4,999847
0,314000	0,835419	4,570923
0,315000	0,813293	4,165497
0,316000	0,849457	4,003601
0,317000	0,794983	3,859406
0,318000	0,859833	4,082184
0,319000	0,775757	4,999847
0,320000	0,866241	4,999847
0,321000	0,787201	4,999847
0,322000	0,867310	4,999847
0,323000	0,800171	4,999847
0,324000	0,861053	4,641571
0,325000	0,816345	3,361359
0,326000	0,844421	4,217072
0,327000	0,834045	3,405457
0,328000	0,832367	4,999847
0,329000	0,852356	4,999847
0,330000	0,810547	4,999847
0,331000	0,860138	4,999847
0,332000	0,799255	4,999847
0,333000	0,864563	4,999847
0,334000	0,782471	4,719086
0,335000	0,697327	4,999847
0,336000	0,658417	2,887573
0,337000	0,641022	4,114532
0,338000	0,632477	3,160248
0,339000	0,628204	4,999847
0,340000	0,626373	4,999847
0,341000	0,625610	4,999847
0,342000	0,625153	4,999847
0,343000	0,625000	4,999847
0,344000	0,624695	4,999847
0,345000	0,624695	4,179993
0,346000	0,624390	3,958435
0,347000	0,624390	3,221588
0,348000	0,624084	4,999847
0,349000	0,624237	4,999847
0,350000	0,624390	4,999847
0,351000	0,624542	4,999847
0,352000	0,624847	4,999847
0,353000	0,625153	4,999847
0,354000	0,624695	4,539032
0,355000	0,624847	4,999847
0,356000	0,605621	4,902954
0,357000	0,583649	3,884888
0,358000	0,578766	3,960114
0,359000	0,574646	4,999847
0,360000	0,572357	4,999847
0,361000	0,545502	4,999847
0,362000	0,554504	4,999847
0,363000	0,563049	4,999847
0,364000	0,564575	4,988251
0,365000	0,568390	3,371735
0,366000	0,574188	4,308777
0,367000	0,572662	3,997803
0,368000	0,569916	4,501190
0,369000	0,567780	4,999847
0,370000	0,565491	4,999847
0,371000	0,562134	4,999847
0,372000	0,559387	4,999847
0,373000	0,556030	4,999847
0,374000	0,557861	4,999847
0,375000	0,558319	4,999847
0,376000	0,557404	2,962189
0,377000	0,556335	4,262085
0,378000	0,558929	4,864349
0,379000	0,561829	4,999847
0,380000	0,566864	4,999847
0,381000	0,571442	4,999847
0,382000	0,570831	4,999847
0,383000	0,573578	4,999847
0,384000	0,575867	4,271545
0,385000	0,575867	2,901611
0,386000	0,576324	3,720245
0,387000	0,573730	3,155518
0,388000	0,570221	4,999847
0,389000	0,567780	4,999847
0,390000	0,565796	4,999847
0,391000	0,567474	4,999847
0,392000	0,564575	4,999847
0,393000	0,567322	4,999847
0,394000	0,566864	4,999847
0,395000	0,565643	4,843750
0,396000	0,563202	3,535614
0,397000	0,558014	3,444672
0,398000	0,556793	4,281921
0,399000	0,555573	4,999847
0,400000	0,557098	4,999847
0,401000	0,555420	4,999847
0,402000	0,553131	4,999847
0,403000	0,552368	4,999847
0,404000	0,550537	4,999847
0,405000	0,546875	3,768158
0,406000	0,550537	3,318939
0,407000	0,549927	4,993134
0,408000	0,555878	4,414673
0,409000	0,558472	4,999847
0,410000	0,552521	4,999847
0,411000	0,550690	4,999847
0,412000	0,551453	4,999847
0,413000	0,551758	4,999847
0,414000	0,552826	4,999847
0,415000	0,553589	4,205780
0,416000	0,551453	3,473206
0,417000	0,553436	4,413757
0,418000	0,547943	4,076080
0,419000	0,549927	4,999847
0,420000	0,547638	4,999847
0,421000	0,549927	4,999847
0,422000	0,552063	4,999847
0,423000	0,552368	4,999847
0,424000	0,550385	4,999847
0,425000	0,552216	4,051056
0,426000	0,550690	2,535095
0,427000	0,556030	4,982910
0,428000	0,559235	4,999847
0,429000	0,557861	4,999847
0,430000	0,554504	4,999847
0,431000	0,558472	4,999847
0,432000	0,564880	4,999847
0,433000	0,568542	4,999847
0,434000	0,583954	4,999847
0,435000	0,583496	4,815674
0,436000	0,584106	2,392120
0,437000	0,582428	4,736328
0,438000	0,579071	3,322601
0,439000	0,575714	4,999847
0,440000	0,573120	4,999847
0,441000	0,569153	4,999847
0,442000	0,569763	4,999847
0,443000	0,567322	4,999847
0,444000	0,568390	4,999847
0,445000	0,570068	3,443146
0,446000	0,569000	4,088287
0,447000	0,565948	4,453125
0,448000	0,570984	4,999847
0,449000	0,574646	4,999847
0,450000	0,575714	4,999847
0,451000	0,577393	4,999847
0,452000	0,579681	4,999847
0,453000	0,581665	4,999847
0,454000	0,583954	4,864349
0,455000	0,580444	4,713440
0,456000	0,578461	2,444000
0,457000	0,581970	4,842529
0,458000	0,582886	2,978210
0,459000	0,586395	4,999847
0,460000	0,585480	4,999847
0,461000	0,582581	4,999847
0,462000	0,578613	4,999847
0,463000	0,571747	4,999847
0,464000	0,551758	4,999847
0,465000	0,568237	3,188171
0,466000	0,571747	3,555298
0,467000	0,577545	3,679962
0,468000	0,578308	4,581451
0,469000	0,577698	4,999847
0,470000	0,576782	4,999847
0,471000	0,574951	4,999847
0,472000	0,576324	4,999847
0,473000	0,577850	4,999847
0,474000	0,581207	4,999847
0,475000	0,581360	3,617096
0,476000	0,587158	3,426666
0,477000	0,579987	3,545685
0,478000	0,586243	3,153687
0,479000	0,577698	4,999847
0,480000	0,584717	4,999847
0,481000	0,582123	4,999847
0,482000	0,588379	4,999847
0,483000	0,584412	4,999847
0,484000	0,585632	4,999847
0,485000	0,586700	3,055115
0,486000	0,582275	2,637024
0,487000	0,587158	4,540253
0,488000	0,581360	4,576111
0,489000	0,587616	4,999847
0,490000	0,576630	4,999847
0,491000	0,589447	4,999847
0,492000	0,571594	4,999847
0,493000	0,590973	4,999847
0,494000	0,579376	4,999847
0,495000	0,592499	4,267426
0,496000	0,582581	4,122925
0,497000	0,592346	3,815918
0,498000	0,591736	3,950653
0,499000	0,593567	4,999847
0,500000	0,595551	4,999847
0,501000	0,594635	4,999847
0,502000	0,601807	4,999847
0,503000	0,595398	4,999847
0,504000	0,606995	4,999847
0,505000	0,597382	2,311401
0,506000	0,612030	4,238739
0,507000	0,595551	3,213348
0,508000	0,613556	4,999847
0,509000	0,599060	4,999847
0,510000	0,609894	4,999847
0,511000	0,598450	4,999847
0,512000	0,603027	4,999847
0,513000	0,600128	4,999847
0,514000	0,600281	4,999847
0,515000	0,605927	3,450165
0,516000	0,598145	3,381195
0,517000	0,611420	3,127747
0,518000	0,594788	3,699188
0,519000	0,615234	4,999847
0,520000	0,588989	4,999847
0,521000	0,618896	4,999847
0,522000	0,582581	4,999847
0,523000	0,615387	4,999847
0,524000	0,564423	4,580078
0,525000	0,579987	3,857269
0,526000	0,589752	2,773285
0,527000	0,605164	4,475555
0,528000	0,608063	4,944000
0,529000	0,606384	4,999847
0,530000	0,615997	4,999847
0,531000	0,595093	4,999847
0,532000	0,617523	4,999847
0,533000	0,590210	4,999847
0,534000	0,624695	4,999847
0,535000	0,588684	4,494629
0,536000	0,631714	3,829651
0,537000	0,591278	3,202057
0,538000	0,626831	4,417114
0,539000	0,601959	4,903107
0,540000	0,621796	4,999847
0,541000	0,613556	4,999847
0,542000	0,618591	4,999847
0,543000	0,624695	4,999847
0,544000	0,618591	4,428864
0,545000	0,635681	2,752838
0,546000	0,619202	3,675232
0,547000	0,643921	4,999847
0,548000	0,614014	4,999847
0,549000	0,650024	4,999847
0,550000	0,607452	4,999847
0,551000	0,651855	4,999847
0,552000	0,616302	4,999847
0,553000	0,644531	4,999847
0,554000	0,623474	4,782867
0,555000	0,640106	3,534851
0,556000	0,634766	2,858276
0,557000	0,633087	3,039703
0,558000	0,641937	4,370422
0,559000	0,628510	4,999847
0,560000	0,650177	4,999847
0,561000	0,617981	4,999847
0,562000	0,654602	4,999847
0,563000	0,608826	4,999847
0,564000	0,660248	4,622803
0,565000	0,601959	2,923126
0,566000	0,610199	2,763062
0,567000	0,563507	4,015656
0,568000	0,625000	4,999847
0,569000	0,614471	4,999847
0,570000	0,632172	4,999847
0,571000	0,630798	4,999847
0,572000	0,621796	4,999847
0,573000	0,642700	4,999847
0,574000	0,627136	4,655304
0,575000	0,660858	3,696899
0,576000	0,624847	3,352966
0,577000	0,671539	4,660797
0,578000	0,622711	3,864288
0,579000	0,681305	4,999847
0,580000	0,626526	4,999847
0,581000	0,675201	4,999847
0,582000	0,636139	4,999847
0,583000	0,662231	4,999847
0,584000	0,644379	4,523773
0,585000	0,645905	3,149872
0,586000	0,648956	4,614716
0,587000	0,636597	3,489380
0,588000	0,661011	4,773712
0,589000	0,624542	4,999847
0,590000	0,670013	4,999847
0,591000	0,619354	4,999847
0,592000	0,681152	4,999847
0,593000	0,614166	4,999847
0,594000	0,689392	4,822235
0,595000	0,623779	3,870239
0,596000	0,676880	2,845612
0,597000	0,639496	3,459473
0,598000	0,661011	4,768829
0,599000	0,649414	4,941559
0,600000	0,649719	4,999847
0,601000	0,662231	4,999847
0,602000	0,640106	4,999847
0,603000	0,674896	4,999847
0,604000	0,635376	4,860992
0,605000	0,690155	3,099670
0,606000	0,629578	4,202728
0,607000	0,701447	3,531494
0,608000	0,629883	4,999847
0,609000	0,706329	4,999847
0,610000	0,646210	4,999847
0,611000	0,692902	4,999847
0,612000	0,658569	4,999847
0,613000	0,677643	4,999847
0,614000	0,671387	4,869080
0,615000	0,667572	4,820251
0,616000	0,689850	1,605072
0,617000	0,679474	4,014130
0,618000	0,714874	4,287872
0,619000	0,680695	4,999847
0,620000	0,728912	4,999847
0,621000	0,669403	4,999847
0,622000	0,734406	4,999847
0,623000	0,660248	4,999847
0,624000	0,726166	3,792267
0,625000	0,671387	3,830109
0,626000	0,711975	4,114380
0,627000	0,687256	3,274994
0,628000	0,682678	4,377441
0,629000	0,670013	4,999847
0,630000	0,642090	4,999847
0,631000	0,677032	4,999847
0,632000	0,670319	4,999847
0,633000	0,722198	4,999847
0,634000	0,678711	4,494781
0,635000	0,738983	4,870605
0,636000	0,674438	4,689331
0,637000	0,751038	3,954926
0,638000	0,678101	4,180450
0,639000	0,744324	4,999847
0,640000	0,693665	4,999847
0,641000	0,729828	4,999847
0,642000	0,709076	4,999847
0,643000	0,716553	4,999847
0,644000	0,720825	3,909607
0,645000	0,705566	3,733368
0,646000	0,736084	3,237152
0,647000	0,695343	4,989166
0,648000	0,746918	4,999847
0,649000	0,678711	4,999847
0,650000	0,753937	4,999847
0,651000	0,668335	4,999847
0,652000	0,763092	4,999847
0,653000	0,687561	4,999847
0,654000	0,754852	4,653931
0,655000	0,699615	4,383392
0,656000	0,738678	3,972321
0,657000	0,721893	3,667450
0,658000	0,718079	4,477997
0,659000	0,734558	4,604034
0,660000	0,711060	4,999847
0,661000	0,750580	4,999847
0,662000	0,695190	4,999847
0,663000	0,761108	4,999847
0,664000	0,681152	4,999847
0,665000	0,771942	4,034729
0,666000	0,673370	3,839722
0,667000	0,774536	3,356476
0,668000	0,683746	4,829254
0,669000	0,723572	4,999847
0,670000	0,702057	4,999847
0,671000	0,736694	4,999847
0,672000	0,729675	4,999847
0,673000	0,723114	4,999847
0,674000	0,749054	4,999847
0,675000	0,712433	4,528351
0,676000	0,765381	3,881378
0,677000	0,702209	3,649139
0,678000	0,780334	4,898987
0,679000	0,686798	4,636841
0,680000	0,790710	4,999847
0,681000	0,696716	4,999847
0,682000	0,795135	4,999847
0,683000	0,721436	4,999847
0,684000	0,773773	4,357910
0,685000	0,736847	2,935486
0,686000	0,753174	3,292694
0,687000	0,754395	4,817963
0,688000	0,737305	4,999847
0,689000	0,769958	4,999847
0,690000	0,721436	4,999847
0,691000	0,784454	4,999847
0,692000	0,710907	4,999847
0,693000	0,800018	4,999847
0,694000	0,696106	4,999847
0,695000	0,812378	4,519348
0,696000	0,717316	4,569550
0,697000	0,803680	3,293457
0,698000	0,739594	3,936310
0,699000	0,786896	4,999847
0,700000	0,759277	4,999847
0,701000	0,764618	4,999847
0,702000	0,774689	4,999847
0,703000	0,748749	4,999847
0,704000	0,791168	4,935303
0,705000	0,736084	3,694763
0,706000	0,807343	2,837982
0,707000	0,723877	3,850708
0,708000	0,823517	4,999847
0,709000	0,732269	4,999847
0,710000	0,843658	4,999847
0,711000	0,749817	4,999847
0,712000	0,830841	4,999847
0,713000	0,770264	4,999847
0,714000	0,812531	4,999847
0,715000	0,788116	4,449921
0,716000	0,799408	2,906036
0,717000	0,809479	3,593750
0,718000	0,760651	4,082642
0,719000	0,815125	4,999847
0,720000	0,761719	4,999847
0,721000	0,838623	4,999847
0,722000	0,750427	4,999847
0,723000	0,854492	4,999847
0,724000	0,760651	4,545593
0,725000	0,863800	3,204651
0,726000	0,747223	2,490540
0,727000	0,740051	4,839783
0,728000	0,737152	4,340363
0,729000	0,735474	4,999847
0,730000	0,844269	4,999847
0,731000	0,744934	4,999847
0,732000	0,860443	4,999847
0,733000	0,764465	4,999847
0,734000	0,865021	4,999847
0,735000	0,787811	3,603363
0,736000	0,846405	3,637695
0,737000	0,806732	4,449921
0,738000	0,819397	4,588776
0,739000	0,821686	4,999847
0,740000	0,806274	4,999847
0,741000	0,841370	4,999847
0,742000	0,791321	4,999847
0,743000	0,857849	4,999847
0,744000	0,779114	4,759369
0,745000	0,870056	3,561096
0,746000	0,766754	0,873566
0,747000	0,874786	4,506836
0,748000	0,788269	4,999847
0,749000	0,873566	4,999847
0,750000	0,813141	4,999847
0,751000	0,856934	4,999847
0,752000	0,830841	4,999847
0,753000	0,831604	4,999847
0,754000	0,845490	4,999847
0,755000	0,813141	3,814850
0,756000	0,859833	3,172455
0,757000	0,773773	3,474426
0,758000	0,844269	3,408356
0,759000	0,755463	4,999847
0,760000	0,848389	4,999847
0,761000	0,755920	4,999847
0,762000	0,848694	4,999847
0,763000	0,777588	4,999847
0,764000	0,843048	4,999847
0,765000	0,799103	2,943420
0,766000	0,818176	3,399200
0,767000	0,814972	4,999847
0,768000	0,798035	4,999847
0,769000	0,829468	4,999847
0,770000	0,782623	4,999847
0,771000	0,827484	4,999847
0,772000	0,768585	4,999847
0,773000	0,685577	4,999847
0,774000	0,648193	4,503784
0,775000	0,630798	3,857269
0,776000	0,622711	4,327240
0,777000	0,618744	3,547363
0,778000	0,617218	3,425140
0,779000	0,616302	4,999847
0,780000	0,615845	4,999847
0,781000	0,615692	4,999847
0,782000	0,615387	4,999847
0,783000	0,615540	4,999847
0,784000	0,615234	4,999847
0,785000	0,614929	2,903290
0,786000	0,615082	4,434967
0,787000	0,615234	4,132843
0,788000	0,615234	4,999847
0,789000	0,615387	4,999847
0,790000	0,615387	4,999847
0,791000	0,615387	4,999847
0,792000	0,613861	4,999847
0,793000	0,578918	4,999847
0,794000	0,565033	4,999847
0,795000	0,558167	3,478394
0,796000	0,554657	4,094391
0,797000	0,552673	2,867126
0,798000	0,550079	3,359070
0,799000	0,550690	4,999847
0,800000	0,553131	4,999847
0,801000	0,554504	4,999847
0,802000	0,548401	4,999847
0,803000	0,542755	4,999847
0,804000	0,544128	4,995880
0,805000	0,547791	3,905945
0,806000	0,547943	2,955627
0,807000	0,550537	4,999847
0,808000	0,548553	4,999847
0,809000	0,543823	4,999847
0,810000	0,541077	4,999847
0,811000	0,537415	4,999847
0,812000	0,537415	4,999847
0,813000	0,541229	4,999847
0,814000	0,545807	4,985962
0,815000	0,548401	4,634094
0,816000	0,551300	3,824158
0,817000	0,552521	3,516998
0,818000	0,551300	3,807983
0,819000	0,550842	4,999847
0,820000	0,544128	4,999847
0,821000	0,544281	4,999847
0,822000	0,547333	4,999847
0,823000	0,548248	4,999847
0,824000	0,549469	4,999847
0,825000	0,548553	3,939667
0,826000	0,549469	2,674713
0,827000	0,549316	3,694305
0,828000	0,547791	4,999847
0,829000	0,546417	4,999847
0,830000	0,550385	4,999847
0,831000	0,555267	4,999847
0,832000	0,550842	4,999847
0,833000	0,555725	4,999847
0,834000	0,554962	4,673004
0,835000	0,556183	3,726654
0,836000	0,553436	3,896484
0,837000	0,557404	3,227997
0,838000	0,558014	4,999847
0,839000	0,563965	4,777679
0,840000	0,566101	4,999847
0,841000	0,567780	4,999847
0,842000	0,568085	4,999847
0,843000	0,569305	4,999847
0,844000	0,564423	4,758148
0,845000	0,562439	3,704376
0,846000	0,561981	2,272491
0,847000	0,563965	4,289398
0,848000	0,568695	4,999847
0,849000	0,568695	4,999847
0,850000	0,566864	4,999847
0,851000	0,566101	4,999847
0,852000	0,567474	4,999847
0,853000	0,569916	4,999847
0,854000	0,570679	4,999847
0,855000	0,562286	4,809570
0,856000	0,560913	3,158264
0,857000	0,557098	2,876282
0,858000	0,558624	4,999847
0,859000	0,563354	4,999847
0,860000	0,566711	4,999847
0,861000	0,568848	4,999847
0,862000	0,567932	4,999847
0,863000	0,569458	4,999847
0,864000	0,568390	4,752502
0,865000	0,568390	3,547516
0,866000	0,559692	2,567596
0,867000	0,561371	4,773560
0,868000	0,565033	4,999847
0,869000	0,570984	4,999847
0,870000	0,575562	4,999847
0,871000	0,574188	4,999847
0,872000	0,573730	4,999847
0,873000	0,543671	4,999847
0,874000	0,550079	4,999847
0,875000	0,557251	4,251709
0,876000	0,554047	4,214325
0,877000	0,550079	3,774872
0,878000	0,552826	4,267426
0,879000	0,555115	4,999847
0,880000	0,555725	4,999847
0,881000	0,552216	4,999847
0,882000	0,548248	4,999847
0,883000	0,554047	4,927826
0,884000	0,557098	4,611664
0,885000	0,557098	2,995911
0,886000	0,558472	4,074554
0,887000	0,559845	4,514618
0,888000	0,560455	4,999847
0,889000	0,556030	4,999847
0,890000	0,563354	4,999847
0,891000	0,555878	4,999847
0,892000	0,559387	4,999847
0,893000	0,552826	4,999847
0,894000	0,552368	4,999847
0,895000	0,543823	4,008789
0,896000	0,550385	4,735718
0,897000	0,554199	3,507080
0,898000	0,562134	3,928223
0,899000	0,564575	4,661560
0,900000	0,566711	4,999847
0,901000	0,565643	4,999847
0,902000	0,565948	4,999847
0,903000	0,569153	4,999847
0,904000	0,571594	3,944702
0,905000	0,574951	3,688965
0,906000	0,574036	4,016418
0,907000	0,576324	4,999847
0,908000	0,570221	4,999847
0,909000	0,574951	4,999847
0,910000	0,569000	4,999847
0,911000	0,574799	4,999847
0,912000	0,569611	4,999847
0,913000	0,575562	4,999847
0,914000	0,573578	4,999847
0,915000	0,576324	4,082947
0,916000	0,566406	3,038635
0,917000	0,556488	3,401184
0,918000	0,561829	4,911041
0,919000	0,555725	4,999847
0,920000	0,567322	4,999847
0,921000	0,572357	4,999847
0,922000	0,582581	4,999847
0,923000	0,578766	4,999847
0,924000	0,588531	4,914093
0,925000	0,581665	3,394928
0,926000	0,589600	2,599945
0,927000	0,585327	4,999847
0,928000	0,591431	4,999847
0,929000	0,592346	4,999847
0,930000	0,589294	4,999847
0,931000	0,593719	4,999847
0,932000	0,588837	4,999847
0,933000	0,589294	4,999847
0,934000	0,587158	4,999847
0,935000	0,596466	4,437408
0,936000	0,591888	2,239685
0,937000	0,605469	3,959198
0,938000	0,593567	4,801025
0,939000	0,602264	4,999847
0,940000	0,591431	4,999847
0,941000	0,603027	4,999847
0,942000	0,599518	4,999847
0,943000	0,601196	4,876709
0,944000	0,598907	4,999847
0,945000	0,578613	2,761688
0,946000	0,584106	2,797089
0,947000	0,570984	4,999847
0,948000	0,590210	4,999847
0,949000	0,585937	4,999847
0,950000	0,603943	4,999847
0,951000	0,593719	4,999847
0,952000	0,612793	4,999847
0,953000	0,594025	4,999847
0,954000	0,610352	4,999847
0,955000	0,586395	3,943787
0,956000	0,601654	3,244019
0,957000	0,598907	4,205475
0,958000	0,593414	4,606171
0,959000	0,592651	4,999847
0,960000	0,590057	4,999847
0,961000	0,603638	4,999847
0,962000	0,589142	4,999847
0,963000	0,610046	4,558868
0,964000	0,570526	4,955292
0,965000	0,605469	3,048401
0,966000	0,562286	4,077606
0,967000	0,609131	4,999847
0,968000	0,574646	4,999847
0,969000	0,605621	4,999847
0,970000	0,583954	4,999847
0,971000	0,605469	4,999847
0,972000	0,605774	4,999847
0,973000	0,608368	4,999847
0,974000	0,616302	4,999847
0,975000	0,602570	4,039154
0,976000	0,580444	3,731995
0,977000	0,556641	4,912872
0,978000	0,603943	4,025879
0,979000	0,591736	4,999847
0,980000	0,631256	4,999847
0,981000	0,599670	4,999847
0,982000	0,635681	4,999847
0,983000	0,594788	4,999847
0,984000	0,622559	4,999847
0,985000	0,607300	2,563477
0,986000	0,621490	2,511597
0,987000	0,620422	4,999847
0,988000	0,618286	4,999847
0,989000	0,631256	4,999847
0,990000	0,614166	4,999847
0,991000	0,637360	4,999847
0,992000	0,599365	4,999847
0,993000	0,638733	4,999847
0,994000	0,600128	4,999847
0,995000	0,648041	3,296661
0,996000	0,608368	3,302765
0,997000	0,646210	4,163208
0,998000	0,611420	4,542847
0,999000	0,627441	4,999847

