LabVIEW Measurement	
Writer_Version	2
Reader_Version	2
Separator	Tab
Decimal_Separator	,
Multi_Headings	Yes
X_Columns	One
Time_Pref	Absolute
Operator	d.nicolai
Date	2023/11/09
Time	16:04:05,6565121999996605588
***End_of_Header***	
	
Channels	2		
Samples	1000	1000	
Date	2023/11/09	2023/11/09	
Time	16:04:46,0765123999999608793	16:04:46,0765123999999608793	
Y_Unit_Label	Volts	Volts	
X_Dimension	Time	Time	
X0	0,0000000000000000E+0	0,0000000000000000E+0	
Delta_X	0,001000	0,001000	
***End_of_Header***			
X_Value	powebox	triggerbox	Comment
0,000000	0,723267	0,986481
0,001000	0,681305	4,364014
0,002000	0,734406	4,889832
0,003000	0,674896	4,999847
0,004000	0,738983	4,999847
0,005000	0,683441	4,999847
0,006000	0,723572	4,999847
0,007000	0,691986	4,999847
0,008000	0,708618	4,999847
0,009000	0,703583	3,691864
0,010000	0,699921	4,999847
0,011000	0,714874	3,128052
0,012000	0,687408	3,570251
0,013000	0,723724	4,999847
0,014000	0,687408	4,999847
0,015000	0,738983	4,999847
0,016000	0,683594	4,999847
0,017000	0,749359	4,999847
0,018000	0,685577	4,408569
0,019000	0,751190	3,399200
0,020000	0,698700	3,775024
0,021000	0,738831	4,999847
0,022000	0,712585	4,798279
0,023000	0,721588	4,999847
0,024000	0,719299	4,999847
0,025000	0,705414	4,999847
0,026000	0,729370	4,999847
0,027000	0,698547	4,999847
0,028000	0,743713	4,999847
0,029000	0,689087	3,799744
0,030000	0,753937	3,672485
0,031000	0,676575	4,827728
0,032000	0,763397	3,380890
0,033000	0,666656	4,999847
0,034000	0,735931	4,999847
0,035000	0,696716	4,999847
0,036000	0,737610	4,999847
0,037000	0,717316	4,999847
0,038000	0,725555	4,999847
0,039000	0,725098	3,662872
0,040000	0,686493	2,771301
0,041000	0,731659	3,631287
0,042000	0,693665	4,999847
0,043000	0,745392	4,999847
0,044000	0,681610	4,999847
0,045000	0,750427	4,999847
0,046000	0,668335	4,999847
0,047000	0,774384	4,999847
0,048000	0,692444	4,885559
0,049000	0,760956	4,702606
0,050000	0,720520	3,160248
0,051000	0,753784	4,800568
0,052000	0,738525	3,872833
0,053000	0,736542	4,999847
0,054000	0,749207	4,999847
0,055000	0,722961	4,999847
0,056000	0,765533	4,999847
0,057000	0,709381	4,999847
0,058000	0,778809	4,770050
0,059000	0,698395	3,113098
0,060000	0,789642	4,528351
0,061000	0,694427	2,868652
0,062000	0,795441	4,609070
0,063000	0,712585	4,999847
0,064000	0,779877	4,999847
0,065000	0,737762	4,999847
0,066000	0,766296	4,999847
0,067000	0,756226	4,999847
0,068000	0,742950	4,999847
0,069000	0,767212	3,689880
0,070000	0,730133	3,304138
0,071000	0,783844	3,782501
0,072000	0,725555	4,028473
0,073000	0,801086	4,989471
0,074000	0,710907	4,999847
0,075000	0,813751	4,999847
0,076000	0,720062	4,999847
0,077000	0,814514	4,999847
0,078000	0,737000	4,999847
0,079000	0,788727	4,058990
0,080000	0,752869	4,034119
0,081000	0,765381	3,700562
0,082000	0,766907	4,430695
0,083000	0,704498	4,999847
0,084000	0,758820	4,999847
0,085000	0,720520	4,999847
0,086000	0,793457	4,999847
0,087000	0,719757	4,999847
0,088000	0,814209	4,999847
0,089000	0,708771	4,576569
0,090000	0,827789	3,888245
0,091000	0,729065	4,989319
0,092000	0,816345	4,683990
0,093000	0,752716	4,999847
0,094000	0,801239	4,999847
0,095000	0,774384	4,999847
0,096000	0,778961	4,999847
0,097000	0,790710	4,999847
0,098000	0,762787	4,999847
0,099000	0,807190	4,008789
0,100000	0,747986	2,816467
0,101000	0,823822	4,462128
0,102000	0,736542	4,697723
0,103000	0,840454	4,999847
0,104000	0,735779	4,999847
0,105000	0,854340	4,999847
0,106000	0,761871	4,999847
0,107000	0,847626	4,999847
0,108000	0,786743	4,999847
0,109000	0,825653	4,886017
0,110000	0,804596	2,493439
0,111000	0,804138	4,592133
0,112000	0,820465	3,321228
0,113000	0,778046	4,893036
0,114000	0,832825	4,999847
0,115000	0,771027	4,999847
0,116000	0,853729	4,999847
0,117000	0,758820	4,999847
0,118000	0,749817	4,999847
0,119000	0,748749	4,051361
0,120000	0,747528	3,035126
0,121000	0,775757	4,398346
0,122000	0,850067	4,999847
0,123000	0,797119	4,999847
0,124000	0,829773	4,999847
0,125000	0,816193	4,999847
0,126000	0,812531	4,999847
0,127000	0,834808	4,999847
0,128000	0,798798	4,999847
0,129000	0,853119	4,044495
0,130000	0,782928	2,655334
0,131000	0,868683	3,308716
0,132000	0,767212	3,647003
0,133000	0,879822	4,999847
0,134000	0,775604	4,999847
0,135000	0,880432	4,999847
0,136000	0,800323	4,999847
0,137000	0,852509	4,873047
0,138000	0,816498	4,999847
0,139000	0,828705	3,449097
0,140000	0,833588	4,087677
0,141000	0,829315	3,129578
0,142000	0,861969	4,999847
0,143000	0,809784	4,999847
0,144000	0,875092	4,999847
0,145000	0,793457	4,999847
0,146000	0,885468	4,999847
0,147000	0,775299	4,999847
0,148000	0,889740	4,999847
0,149000	0,798187	4,500122
0,150000	0,884399	2,469635
0,151000	0,819702	4,286957
0,152000	0,864258	3,965912
0,153000	0,841217	4,999847
0,154000	0,846100	4,999847
0,155000	0,860596	4,999847
0,156000	0,823517	4,999847
0,157000	0,873871	4,999847
0,158000	0,807037	4,999847
0,159000	0,885468	4,037933
0,160000	0,797424	3,005219
0,161000	0,892639	4,999847
0,162000	0,794983	4,703522
0,163000	0,893555	4,999847
0,164000	0,771332	4,999847
0,165000	0,703888	4,999847
0,166000	0,673676	4,999847
0,167000	0,659180	4,999847
0,168000	0,653076	4,999847
0,169000	0,650177	4,274750
0,170000	0,648651	3,332367
0,171000	0,648041	3,388519
0,172000	0,647430	4,105072
0,173000	0,647430	4,999847
0,174000	0,646973	4,999847
0,175000	0,646973	4,999847
0,176000	0,646667	4,999847
0,177000	0,646515	4,999847
0,178000	0,646210	4,933929
0,179000	0,646210	3,673553
0,180000	0,646057	2,824249
0,181000	0,645752	4,362030
0,182000	0,645752	4,999847
0,183000	0,646210	4,999847
0,184000	0,613708	4,999847
0,185000	0,545502	4,999847
0,186000	0,536041	4,999847
0,187000	0,538635	4,999847
0,188000	0,541077	4,999847
0,189000	0,548096	4,054413
0,190000	0,553589	3,133392
0,191000	0,554352	4,348450
0,192000	0,551300	3,175659
0,193000	0,553131	4,999847
0,194000	0,549927	4,999847
0,195000	0,555420	4,999847
0,196000	0,547638	4,999847
0,197000	0,549774	4,999847
0,198000	0,547180	4,999847
0,199000	0,547028	3,128204
0,200000	0,546112	2,980194
0,201000	0,545197	4,468536
0,202000	0,549622	4,654999
0,203000	0,548553	4,999847
0,204000	0,548096	4,999847
0,205000	0,538025	4,999847
0,206000	0,545959	4,999847
0,207000	0,548553	4,999847
0,208000	0,552063	4,999847
0,209000	0,556793	4,455261
0,210000	0,560303	4,385071
0,211000	0,562134	3,838959
0,212000	0,558777	3,507233
0,213000	0,549622	4,999847
0,214000	0,539093	4,999847
0,215000	0,537415	4,999847
0,216000	0,533752	4,999847
0,217000	0,526886	4,999847
0,218000	0,517273	4,999847
0,219000	0,515137	3,772888
0,220000	0,506744	2,643433
0,221000	0,505524	3,274689
0,222000	0,503998	4,999847
0,223000	0,505524	4,999847
0,224000	0,502625	4,999847
0,225000	0,505981	4,999847
0,226000	0,509338	4,999847
0,227000	0,509949	4,999847
0,228000	0,506439	4,857788
0,229000	0,504761	4,816589
0,230000	0,499420	3,593292
0,231000	0,502472	4,633484
0,232000	0,504761	3,259888
0,233000	0,510559	4,999847
0,234000	0,520630	4,999847
0,235000	0,521240	4,999847
0,236000	0,523834	4,999847
0,237000	0,523376	4,999847
0,238000	0,525970	4,530792
0,239000	0,524597	3,101349
0,240000	0,524597	4,255829
0,241000	0,525513	2,719421
0,242000	0,530853	4,805603
0,243000	0,533905	4,999847
0,244000	0,535278	4,999847
0,245000	0,536804	4,999847
0,246000	0,532837	4,999847
0,247000	0,534058	4,999847
0,248000	0,531311	4,999847
0,249000	0,532990	4,163818
0,250000	0,533752	4,378662
0,251000	0,536499	4,241028
0,252000	0,539246	4,291534
0,253000	0,551758	4,999847
0,254000	0,554199	4,999847
0,255000	0,552368	4,999847
0,256000	0,550995	4,999847
0,257000	0,547028	4,999847
0,258000	0,549622	4,440613
0,259000	0,553589	3,539734
0,260000	0,557098	2,974243
0,261000	0,556183	4,436646
0,262000	0,558319	4,999847
0,263000	0,557098	4,999847
0,264000	0,557556	4,999847
0,265000	0,559082	4,999847
0,266000	0,562134	4,999847
0,267000	0,558014	4,999847
0,268000	0,559082	4,999847
0,269000	0,557861	4,205322
0,270000	0,556793	2,834320
0,271000	0,553589	4,289551
0,272000	0,556335	4,880524
0,273000	0,561371	4,999847
0,274000	0,561523	4,999847
0,275000	0,560455	4,999847
0,276000	0,561981	4,999847
0,277000	0,562897	4,999847
0,278000	0,565643	4,091492
0,279000	0,563965	3,571014
0,280000	0,566864	4,004059
0,281000	0,568390	2,817383
0,282000	0,564575	4,999847
0,283000	0,561676	4,999847
0,284000	0,559845	4,999847
0,285000	0,560150	4,999847
0,286000	0,557861	4,999847
0,287000	0,556335	4,999847
0,288000	0,522461	4,999847
0,289000	0,540924	4,772186
0,290000	0,545959	3,839722
0,291000	0,555115	4,902802
0,292000	0,551910	4,126892
0,293000	0,560150	4,999847
0,294000	0,549164	4,999847
0,295000	0,562286	4,999847
0,296000	0,562286	4,999847
0,297000	0,569153	4,999847
0,298000	0,569000	4,491425
0,299000	0,572662	3,166199
0,300000	0,574493	2,480621
0,301000	0,576172	4,467163
0,302000	0,576935	4,558868
0,303000	0,572662	4,999847
0,304000	0,574951	4,999847
0,305000	0,569458	4,999847
0,306000	0,577698	4,999847
0,307000	0,573425	4,999847
0,308000	0,582581	4,999847
0,309000	0,570374	4,581604
0,310000	0,580750	3,789978
0,311000	0,566711	4,286194
0,312000	0,576477	3,490601
0,313000	0,570831	4,999847
0,314000	0,575256	4,999847
0,315000	0,577850	4,999847
0,316000	0,577545	4,999847
0,317000	0,584259	4,999847
0,318000	0,581818	4,024811
0,319000	0,590363	4,507751
0,320000	0,578308	3,817596
0,321000	0,591278	3,119354
0,322000	0,581360	4,783173
0,323000	0,597839	4,999847
0,324000	0,581665	4,999847
0,325000	0,596161	4,999847
0,326000	0,585632	4,999847
0,327000	0,596313	4,999847
0,328000	0,592346	4,999847
0,329000	0,593719	4,909821
0,330000	0,593414	3,067322
0,331000	0,586700	4,999847
0,332000	0,596313	3,426361
0,333000	0,582581	4,999847
0,334000	0,599365	4,999847
0,335000	0,581360	4,999847
0,336000	0,604706	4,999847
0,337000	0,576172	4,999847
0,338000	0,606384	4,292297
0,339000	0,582886	4,055176
0,340000	0,603333	4,340363
0,341000	0,592651	3,841553
0,342000	0,603638	4,999847
0,343000	0,598755	4,999847
0,344000	0,603333	4,999847
0,345000	0,610352	4,999847
0,346000	0,600586	4,999847
0,347000	0,613861	4,999847
0,348000	0,598755	4,977112
0,349000	0,620117	4,421082
0,350000	0,594025	3,866425
0,351000	0,624084	3,867187
0,352000	0,594177	3,087158
0,353000	0,624390	4,393311
0,354000	0,603638	4,999847
0,355000	0,619965	4,999847
0,356000	0,605316	4,999847
0,357000	0,613861	4,999847
0,358000	0,612946	4,766083
0,359000	0,610046	3,744812
0,360000	0,621490	2,850037
0,361000	0,610809	3,350677
0,362000	0,631866	4,999847
0,363000	0,610809	4,999847
0,364000	0,638885	4,999847
0,365000	0,594482	4,999847
0,366000	0,638733	4,999847
0,367000	0,605774	4,999847
0,368000	0,645294	4,777527
0,369000	0,619507	3,866425
0,370000	0,635681	4,172211
0,371000	0,623474	3,109894
0,372000	0,623932	4,114227
0,373000	0,628662	4,999847
0,374000	0,617065	4,999847
0,375000	0,638123	4,999847
0,376000	0,607605	4,999847
0,377000	0,645294	4,999847
0,378000	0,615692	4,281616
0,379000	0,659485	3,554077
0,380000	0,618286	4,198761
0,381000	0,667572	4,387665
0,382000	0,619202	4,366150
0,383000	0,655212	4,999847
0,384000	0,631409	4,999847
0,385000	0,651398	4,999847
0,386000	0,647736	4,999847
0,387000	0,652161	4,999847
0,388000	0,661011	4,999847
0,389000	0,651550	4,565735
0,390000	0,630188	4,438019
0,391000	0,600586	3,233643
0,392000	0,657196	2,989655
0,393000	0,633087	4,999847
0,394000	0,681152	4,999847
0,395000	0,641937	4,999847
0,396000	0,688629	4,999847
0,397000	0,656433	4,999847
0,398000	0,683441	4,927979
0,399000	0,661774	3,381805
0,400000	0,673523	3,603516
0,401000	0,669708	4,266663
0,402000	0,666046	4,999847
0,403000	0,675812	4,999847
0,404000	0,655212	4,999847
0,405000	0,684357	4,999847
0,406000	0,652008	4,999847
0,407000	0,693359	4,999847
0,408000	0,646515	4,999847
0,409000	0,701141	4,176178
0,410000	0,646210	3,338318
0,411000	0,696564	4,538116
0,412000	0,658875	4,170074
0,413000	0,691071	4,774017
0,414000	0,672607	4,999847
0,415000	0,682220	4,999847
0,416000	0,681763	4,999847
0,417000	0,675049	4,999847
0,418000	0,694580	4,999847
0,419000	0,669250	2,850494
0,420000	0,703125	4,113159
0,421000	0,661621	3,638611
0,422000	0,710449	3,821564
0,423000	0,655823	4,999847
0,424000	0,718842	4,999847
0,425000	0,661926	4,999847
0,426000	0,711975	4,999847
0,427000	0,677795	4,999847
0,428000	0,705414	4,927673
0,429000	0,692902	4,769897
0,430000	0,695801	3,944397
0,431000	0,699768	4,811859
0,432000	0,681915	3,079376
0,433000	0,708923	4,999847
0,434000	0,670624	4,999847
0,435000	0,716095	4,999847
0,436000	0,655060	4,999847
0,437000	0,721130	4,999847
0,438000	0,649414	4,516602
0,439000	0,726776	2,485199
0,440000	0,667877	3,369141
0,441000	0,710907	4,647369
0,442000	0,676727	4,946442
0,443000	0,698242	4,999847
0,444000	0,691223	4,999847
0,445000	0,690155	4,999847
0,446000	0,705414	4,999847
0,447000	0,684204	4,999847
0,448000	0,718231	4,999847
0,449000	0,672607	4,088898
0,450000	0,727997	4,196167
0,451000	0,661621	3,874664
0,452000	0,735016	3,756714
0,453000	0,664520	4,999847
0,454000	0,737000	4,999847
0,455000	0,677338	4,999847
0,456000	0,723267	4,999847
0,457000	0,695343	4,999847
0,458000	0,713654	4,999847
0,459000	0,710602	3,673553
0,460000	0,698853	4,548035
0,461000	0,722046	3,168335
0,462000	0,689240	4,222107
0,463000	0,734558	4,999847
0,464000	0,675507	4,999847
0,465000	0,742493	4,999847
0,466000	0,661926	4,999847
0,467000	0,752411	4,999847
0,468000	0,671692	4,428711
0,469000	0,745544	4,178925
0,470000	0,691071	3,937531
0,471000	0,731201	3,933258
0,472000	0,702667	3,350830
0,473000	0,712738	4,999847
0,474000	0,716095	4,999847
0,475000	0,691376	4,999847
0,476000	0,727997	4,999847
0,477000	0,684967	4,999847
0,478000	0,745239	4,999847
0,479000	0,673981	3,498993
0,480000	0,757904	4,120026
0,481000	0,663605	4,312286
0,482000	0,769348	4,506531
0,483000	0,677643	4,999847
0,484000	0,749207	4,999847
0,485000	0,697327	4,999847
0,486000	0,731506	4,999847
0,487000	0,715485	4,999847
0,488000	0,719299	4,946136
0,489000	0,735474	3,441010
0,490000	0,705719	3,205872
0,491000	0,751190	4,514465
0,492000	0,679474	2,621765
0,493000	0,720062	4,999847
0,494000	0,665436	4,999847
0,495000	0,770874	4,999847
0,496000	0,672913	4,999847
0,497000	0,781860	4,999847
0,498000	0,695801	4,783020
0,499000	0,762482	2,950592
0,500000	0,717773	4,110870
0,501000	0,744629	2,465363
0,502000	0,736389	4,775391
0,503000	0,727081	4,999847
0,504000	0,752106	4,999847
0,505000	0,710907	4,999847
0,506000	0,767975	4,999847
0,507000	0,696869	4,999847
0,508000	0,782166	4,999847
0,509000	0,685730	4,516296
0,510000	0,797424	4,057312
0,511000	0,692596	3,518524
0,512000	0,798187	4,291077
0,513000	0,720520	4,999847
0,514000	0,780182	4,999847
0,515000	0,743866	4,999847
0,516000	0,762024	4,999847
0,517000	0,762482	4,999847
0,518000	0,742950	4,999847
0,519000	0,778046	4,121246
0,520000	0,732269	4,084320
0,521000	0,796051	3,322754
0,522000	0,719757	4,764404
0,523000	0,811005	4,999847
0,524000	0,710144	4,999847
0,525000	0,826569	4,999847
0,526000	0,728607	4,999847
0,527000	0,813446	4,999847
0,528000	0,746918	4,645691
0,529000	0,799866	3,895874
0,530000	0,769958	3,248138
0,531000	0,784454	3,891144
0,532000	0,789337	4,359894
0,533000	0,769348	4,483337
0,534000	0,806885	4,999847
0,535000	0,753326	4,999847
0,536000	0,823059	4,999847
0,537000	0,739288	4,999847
0,538000	0,837250	3,824768
0,539000	0,734711	3,895264
0,540000	0,852203	3,807068
0,541000	0,755768	4,707184
0,542000	0,833588	4,999847
0,543000	0,775146	4,999847
0,544000	0,818787	4,999847
0,545000	0,796814	4,999847
0,546000	0,800476	4,999847
0,547000	0,814514	4,999847
0,548000	0,784607	4,999847
0,549000	0,832367	4,999847
0,550000	0,770111	4,387207
0,551000	0,849152	3,646545
0,552000	0,752411	4,439392
0,553000	0,862885	4,999847
0,554000	0,752563	4,999847
0,555000	0,749512	4,999847
0,556000	0,748444	4,999847
0,557000	0,747375	4,999847
0,558000	0,746765	4,094238
0,559000	0,859070	3,701782
0,560000	0,748138	3,432770
0,561000	0,871277	2,609100
0,562000	0,774994	4,999847
0,563000	0,876770	4,999847
0,564000	0,801697	4,999847
0,565000	0,852661	4,999847
0,566000	0,819855	4,999847
0,567000	0,834961	4,999847
0,568000	0,839081	4,999847
0,569000	0,816345	4,229431
0,570000	0,856171	3,008881
0,571000	0,801544	4,999847
0,572000	0,872040	4,682007
0,573000	0,786743	4,999847
0,574000	0,883026	4,999847
0,575000	0,778198	4,999847
0,576000	0,888214	4,999847
0,577000	0,800171	4,999847
0,578000	0,884705	4,555664
0,579000	0,824432	4,754639
0,580000	0,862579	4,100800
0,581000	0,843201	3,623962
0,582000	0,843353	4,999847
0,583000	0,861206	4,999847
0,584000	0,821075	4,999847
0,585000	0,874023	4,999847
0,586000	0,811615	4,999847
0,587000	0,887299	4,999847
0,588000	0,796356	4,999847
0,589000	0,892792	3,941498
0,590000	0,800018	3,141174
0,591000	0,892944	4,108276
0,592000	0,825195	4,999847
0,593000	0,882416	4,329071
0,594000	0,840454	4,999847
0,595000	0,854645	4,999847
0,596000	0,856018	4,999847
0,597000	0,848541	4,999847
0,598000	0,878448	4,580231
0,599000	0,836945	4,098816
0,600000	0,889893	4,328918
0,601000	0,812683	3,417664
0,602000	0,722809	4,847412
0,603000	0,681763	4,999847
0,604000	0,662537	4,999847
0,605000	0,654144	4,999847
0,606000	0,650024	4,999847
0,607000	0,648041	4,999847
0,608000	0,646973	4,999847
0,609000	0,646820	3,989410
0,610000	0,646362	4,009705
0,611000	0,646362	4,449310
0,612000	0,647430	3,106537
0,613000	0,646820	4,999847
0,614000	0,646515	4,999847
0,615000	0,646515	4,999847
0,616000	0,646515	4,999847
0,617000	0,646210	4,999847
0,618000	0,645905	4,999847
0,619000	0,645752	4,519958
0,620000	0,646057	3,759613
0,621000	0,636139	3,538361
0,622000	0,591125	4,543457
0,623000	0,571899	4,999847
0,624000	0,561981	4,999847
0,625000	0,558319	4,999847
0,626000	0,554657	4,999847
0,627000	0,549622	4,999847
0,628000	0,550232	4,999847
0,629000	0,554047	4,627991
0,630000	0,559082	4,417725
0,631000	0,559998	3,613892
0,632000	0,556488	3,662567
0,633000	0,553741	4,999847
0,634000	0,553894	4,999847
0,635000	0,547943	4,999847
0,636000	0,556030	4,999847
0,637000	0,549316	4,999847
0,638000	0,558624	4,827271
0,639000	0,562286	3,717194
0,640000	0,562744	2,850037
0,641000	0,563812	4,532776
0,642000	0,561676	4,999847
0,643000	0,560760	4,999847
0,644000	0,557556	4,999847
0,645000	0,552063	4,999847
0,646000	0,540924	4,999847
0,647000	0,532990	4,999847
0,648000	0,533905	4,999847
0,649000	0,463562	4,076691
0,650000	0,458069	3,257751
0,651000	0,418854	4,679718
0,652000	0,434418	3,221436
0,653000	0,415497	4,908447
0,654000	0,463562	4,999847
0,655000	0,519257	4,999847
0,656000	0,551605	4,999847
0,657000	0,564880	4,999847
0,658000	0,571442	4,613495
0,659000	0,574188	4,044342
0,660000	0,574799	3,983307
0,661000	0,573578	4,220581
0,662000	0,575104	4,999847
0,663000	0,572510	4,999847
0,664000	0,567474	4,999847
0,665000	0,553894	4,999847
0,666000	0,558777	4,999847
0,667000	0,557556	4,999847
0,668000	0,556641	4,999847
0,669000	0,552979	4,417267
0,670000	0,548859	3,173981
0,671000	0,546875	4,999847
0,672000	0,543213	2,923126
0,673000	0,540924	4,658051
0,674000	0,531616	4,999847
0,675000	0,537262	4,999847
0,676000	0,536957	4,999847
0,677000	0,537872	4,999847
0,678000	0,533600	4,764709
0,679000	0,532074	3,684082
0,680000	0,531464	4,584656
0,681000	0,536346	3,531952
0,682000	0,533905	4,999847
0,683000	0,537720	4,999847
0,684000	0,533905	4,999847
0,685000	0,531158	4,999847
0,686000	0,529022	4,999847
0,687000	0,527496	4,999847
0,688000	0,522614	4,999847
0,689000	0,526886	4,348907
0,690000	0,523071	4,210968
0,691000	0,525818	4,999847
0,692000	0,535889	3,455963
0,693000	0,531158	4,999847
0,694000	0,537567	4,999847
0,695000	0,542755	4,999847
0,696000	0,547791	4,999847
0,697000	0,519104	4,999847
0,698000	0,504608	4,694519
0,699000	0,531616	3,388367
0,700000	0,540161	4,095306
0,701000	0,545349	3,953247
0,702000	0,547791	4,999847
0,703000	0,552368	4,999847
0,704000	0,552063	4,999847
0,705000	0,552979	4,999847
0,706000	0,549622	4,999847
0,707000	0,545502	4,999847
0,708000	0,545044	4,999847
0,709000	0,546112	4,451447
0,710000	0,549011	3,483124
0,711000	0,550232	4,636993
0,712000	0,550690	3,253784
0,713000	0,550690	4,999847
0,714000	0,547028	4,999847
0,715000	0,546570	4,999847
0,716000	0,542145	4,999847
0,717000	0,543823	4,999847
0,718000	0,531158	4,407959
0,719000	0,538177	3,156281
0,720000	0,535431	3,862915
0,721000	0,547028	4,008484
0,722000	0,549164	4,411621
0,723000	0,556183	4,999847
0,724000	0,552673	4,999847
0,725000	0,557556	4,999847
0,726000	0,553741	4,999847
0,727000	0,555573	4,999847
0,728000	0,555878	4,885406
0,729000	0,555725	4,502258
0,730000	0,557709	3,593445
0,731000	0,549164	4,248352
0,732000	0,555573	3,657074
0,733000	0,538177	4,999847
0,734000	0,551758	4,999847
0,735000	0,544586	4,999847
0,736000	0,560608	4,999847
0,737000	0,538788	4,999847
0,738000	0,558472	4,294128
0,739000	0,555267	4,217529
0,740000	0,565491	4,765472
0,741000	0,565033	3,482666
0,742000	0,567780	4,999847
0,743000	0,569611	4,999847
0,744000	0,566711	4,999847
0,745000	0,571594	4,999847
0,746000	0,567169	4,999847
0,747000	0,577240	4,999847
0,748000	0,562286	4,641418
0,749000	0,576935	4,222565
0,750000	0,562592	3,582306
0,751000	0,581970	4,538727
0,752000	0,567017	4,528503
0,753000	0,580444	4,999847
0,754000	0,565338	4,999847
0,755000	0,575562	4,999847
0,756000	0,572510	4,999847
0,757000	0,574799	4,999847
0,758000	0,579071	4,373779
0,759000	0,572815	4,102325
0,760000	0,583191	3,140106
0,761000	0,574036	4,287109
0,762000	0,592194	4,999847
0,763000	0,588531	4,999847
0,764000	0,606995	4,999847
0,765000	0,586853	4,999847
0,766000	0,609283	4,999847
0,767000	0,579071	4,999847
0,768000	0,599060	4,999847
0,769000	0,587463	4,817352
0,770000	0,595856	3,375854
0,771000	0,594635	4,999847
0,772000	0,589142	4,503174
0,773000	0,597229	4,999847
0,774000	0,578003	4,999847
0,775000	0,601044	4,999847
0,776000	0,587311	4,999847
0,777000	0,621948	4,999847
0,778000	0,595856	4,160309
0,779000	0,633545	4,213867
0,780000	0,603638	2,832947
0,781000	0,635376	2,871857
0,782000	0,612488	4,381714
0,783000	0,631714	4,999847
0,784000	0,619965	4,999847
0,785000	0,628662	4,999847
0,786000	0,630188	4,999847
0,787000	0,622864	4,999847
0,788000	0,633850	4,920349
0,789000	0,612946	4,612885
0,790000	0,639648	2,907715
0,791000	0,612640	4,453888
0,792000	0,625305	4,855957
0,793000	0,600586	4,999847
0,794000	0,639801	4,999847
0,795000	0,603790	4,999847
0,796000	0,632935	4,999847
0,797000	0,607300	4,999847
0,798000	0,623779	4,341583
0,799000	0,613251	4,708862
0,800000	0,572205	3,793640
0,801000	0,603943	3,054047
0,802000	0,605621	4,953156
0,803000	0,629578	4,999847
0,804000	0,610352	4,999847
0,805000	0,642090	4,999847
0,806000	0,605469	4,999847
0,807000	0,648956	4,999847
0,808000	0,605927	4,440918
0,809000	0,653839	4,999847
0,810000	0,618439	3,464966
0,811000	0,648956	4,999847
0,812000	0,625305	4,362335
0,813000	0,634613	4,366608
0,814000	0,627289	4,999847
0,815000	0,621490	4,999847
0,816000	0,635986	4,999847
0,817000	0,614166	4,999847
0,818000	0,641937	4,855652
0,819000	0,602875	3,858337
0,820000	0,648041	3,842468
0,821000	0,591125	3,874969
0,822000	0,654602	4,853668
0,823000	0,594177	4,999847
0,824000	0,654755	4,999847
0,825000	0,613098	4,999847
0,826000	0,647125	4,999847
0,827000	0,628662	4,999847
0,828000	0,641479	4,999847
0,829000	0,643005	3,906097
0,830000	0,635681	3,332367
0,831000	0,653839	4,853058
0,832000	0,628357	3,166656
0,833000	0,661774	4,854584
0,834000	0,616913	4,999847
0,835000	0,669403	4,999847
0,836000	0,610352	4,999847
0,837000	0,677185	4,999847
0,838000	0,618744	4,721222
0,839000	0,670776	3,483124
0,840000	0,634613	3,557892
0,841000	0,656128	3,754883
0,842000	0,643005	4,999847
0,843000	0,653687	4,999847
0,844000	0,662537	4,999847
0,845000	0,651245	4,999847
0,846000	0,676880	4,999847
0,847000	0,646515	4,999847
0,848000	0,684662	4,999847
0,849000	0,639343	3,708496
0,850000	0,693359	3,968048
0,851000	0,634308	4,512024
0,852000	0,698853	4,366455
0,853000	0,643921	4,999847
0,854000	0,686951	4,999847
0,855000	0,657501	4,999847
0,856000	0,677795	4,999847
0,857000	0,670929	4,999847
0,858000	0,670319	4,999847
0,859000	0,681305	4,319000
0,860000	0,661621	2,798309
0,861000	0,690765	4,044342
0,862000	0,654449	4,999847
0,863000	0,700989	4,999847
0,864000	0,639954	4,999847
0,865000	0,706177	4,999847
0,866000	0,633087	4,999847
0,867000	0,703583	4,999847
0,868000	0,644226	4,999847
0,869000	0,689545	4,036865
0,870000	0,663910	3,464661
0,871000	0,675049	4,926910
0,872000	0,672607	4,262695
0,873000	0,663757	4,999847
0,874000	0,684662	4,999847
0,875000	0,652313	4,999847
0,876000	0,695953	4,999847
0,877000	0,646667	4,999847
0,878000	0,711060	4,332581
0,879000	0,643311	3,447571
0,880000	0,724030	3,879700
0,881000	0,648346	3,723907
0,882000	0,718079	4,999847
0,883000	0,661774	4,999847
0,884000	0,699768	4,999847
0,885000	0,677490	4,999847
0,886000	0,687256	4,999847
0,887000	0,691376	4,999847
0,888000	0,665131	4,999847
0,889000	0,697174	4,236298
0,890000	0,649261	3,589172
0,891000	0,708313	3,583984
0,892000	0,643158	3,084412
0,893000	0,724182	4,884338
0,894000	0,641632	4,999847
0,895000	0,739136	4,999847
0,896000	0,659637	4,999847
0,897000	0,727997	4,999847
0,898000	0,680542	4,834442
0,899000	0,715637	4,088593
0,900000	0,696411	4,220581
0,901000	0,695190	3,442383
0,902000	0,662079	4,853516
0,903000	0,610657	4,999847
0,904000	0,686493	4,999847
0,905000	0,631561	4,999847
0,906000	0,713348	4,999847
0,907000	0,644989	4,999847
0,908000	0,742645	4,999847
0,909000	0,660858	3,634033
0,910000	0,762939	3,739929
0,911000	0,692444	4,705200
0,912000	0,753632	3,567657
0,913000	0,710907	4,999847
0,914000	0,733643	4,999847
0,915000	0,722809	4,999847
0,916000	0,720825	4,999847
0,917000	0,738983	4,999847
0,918000	0,710449	4,966583
0,919000	0,753632	3,424683
0,920000	0,696259	2,737732
0,921000	0,764923	4,375458
0,922000	0,678101	4,537506
0,923000	0,773163	4,999847
0,924000	0,670929	4,999847
0,925000	0,772247	4,999847
0,926000	0,700073	4,999847
0,927000	0,756531	4,999847
0,928000	0,718079	4,999847
0,929000	0,740662	4,427948
0,930000	0,737610	3,483582
0,931000	0,725708	4,999847
0,932000	0,753479	3,967133
0,933000	0,718994	4,999847
0,934000	0,771027	4,999847
0,935000	0,697479	4,999847
0,936000	0,779724	4,999847
0,937000	0,683441	4,999847
0,938000	0,791931	4,528656
0,939000	0,692902	4,082794
0,940000	0,782928	3,939972
0,941000	0,714569	3,669586
0,942000	0,762939	4,999847
0,943000	0,733948	4,999847
0,944000	0,751801	4,999847
0,945000	0,757751	4,999847
0,946000	0,739441	4,999847
0,947000	0,774536	4,999847
0,948000	0,723114	4,954071
0,949000	0,788422	3,729401
0,950000	0,712280	3,387146
0,951000	0,803070	3,951721
0,952000	0,698700	4,357147
0,953000	0,814972	4,999847
0,954000	0,715790	4,999847
0,955000	0,796204	4,999847
0,956000	0,736847	4,999847
0,957000	0,778656	4,999847
0,958000	0,757751	4,999847
0,959000	0,758820	3,885651
0,960000	0,774536	3,029785
0,961000	0,748444	3,617554
0,962000	0,794830	4,636993
0,963000	0,740509	4,999847
0,964000	0,813141	4,999847
0,965000	0,726471	4,999847
0,966000	0,827179	4,999847
0,967000	0,721588	4,999847
0,968000	0,831757	4,999847
0,969000	0,740509	3,946533
0,970000	0,809326	3,513794
0,971000	0,760803	4,395752
0,972000	0,789642	3,753510
0,973000	0,780945	4,999847
0,974000	0,785370	4,999847
0,975000	0,804901	4,999847
0,976000	0,767059	4,999847
0,977000	0,820618	4,999847
0,978000	0,751038	4,578400
0,979000	0,835724	3,232880
0,980000	0,740509	4,196777
0,981000	0,853424	3,383331
0,982000	0,758820	4,999847
0,983000	0,867615	4,999847
0,984000	0,781250	4,999847
0,985000	0,836639	4,999847
0,986000	0,792847	4,999847
0,987000	0,820770	4,999847
0,988000	0,813293	4,878082
0,989000	0,808716	4,570007
0,990000	0,834503	3,568115
0,991000	0,792847	4,999847
0,992000	0,753632	4,426117
0,993000	0,750885	4,999847
0,994000	0,749359	4,999847
0,995000	0,759583	4,999847
0,996000	0,866089	4,999847
0,997000	0,779572	4,999847
0,998000	0,848083	4,999847
0,999000	0,801392	3,405457

