LabVIEW Measurement	
Writer_Version	2
Reader_Version	2
Separator	Tab
Decimal_Separator	,
Multi_Headings	Yes
X_Columns	One
Time_Pref	Absolute
Operator	d.nicolai
Date	2023/11/09
Time	16:04:05,6565121999996605588
***End_of_Header***	
	
Channels	2		
Samples	1000	1000	
Date	2023/11/09	2023/11/09	
Time	16:04:41,8345125999995683913	16:04:41,8345125999995683913	
Y_Unit_Label	Volts	Volts	
X_Dimension	Time	Time	
X0	0,0000000000000000E+0	0,0000000000000000E+0	
Delta_X	0,001000	0,001000	
***End_of_Header***			
X_Value	powebox	triggerbox	Comment
0,000000	0,866547	0,967102
0,001000	0,797119	4,247589
0,002000	0,841980	4,606476
0,003000	0,814972	4,999847
0,004000	0,820007	4,999847
0,005000	0,832062	4,999847
0,006000	0,805969	4,999847
0,007000	0,851746	4,999847
0,008000	0,785370	4,587708
0,009000	0,865784	4,813385
0,010000	0,773621	2,821503
0,011000	0,879822	3,849335
0,012000	0,764771	4,141388
0,013000	0,880737	4,999847
0,014000	0,789185	4,999847
0,015000	0,860596	4,999847
0,016000	0,811920	4,999847
0,017000	0,838013	4,999847
0,018000	0,830841	4,999847
0,019000	0,826111	3,682098
0,020000	0,853271	3,194580
0,021000	0,811005	3,951263
0,022000	0,870972	4,999847
0,023000	0,785675	4,999847
0,024000	0,871124	4,999847
0,025000	0,781555	4,999847
0,026000	0,890350	4,999847
0,027000	0,785065	4,999847
0,028000	0,882721	4,999847
0,029000	0,757904	3,789520
0,030000	0,698242	2,747040
0,031000	0,671539	4,193573
0,032000	0,658264	3,979034
0,033000	0,653076	4,999847
0,034000	0,650024	4,999847
0,035000	0,648193	4,999847
0,036000	0,647583	4,999847
0,037000	0,647278	4,999847
0,038000	0,646973	4,999847
0,039000	0,647125	3,545380
0,040000	0,647125	2,922516
0,041000	0,647278	4,999847
0,042000	0,647125	4,999847
0,043000	0,647125	4,999847
0,044000	0,647430	4,999847
0,045000	0,647430	4,999847
0,046000	0,646820	4,999847
0,047000	0,646820	4,999847
0,048000	0,648499	4,999847
0,049000	0,648041	3,653717
0,050000	0,645599	4,665527
0,051000	0,572052	3,915558
0,052000	0,546875	2,484894
0,053000	0,534363	4,999847
0,054000	0,533447	4,999847
0,055000	0,525513	4,999847
0,056000	0,514679	4,999847
0,057000	0,508118	4,999847
0,058000	0,519104	4,911041
0,059000	0,524445	3,956604
0,060000	0,521698	2,480316
0,061000	0,465240	4,833221
0,062000	0,448456	4,219818
0,063000	0,489502	4,999847
0,064000	0,510101	4,999847
0,065000	0,524750	4,999847
0,066000	0,527802	4,999847
0,067000	0,532532	4,999847
0,068000	0,533447	4,999847
0,069000	0,533905	4,278412
0,070000	0,529785	3,037872
0,071000	0,531616	4,284058
0,072000	0,532532	3,879700
0,073000	0,536194	4,999847
0,074000	0,496521	4,999847
0,075000	0,473328	4,999847
0,076000	0,505676	4,999847
0,077000	0,515594	4,999847
0,078000	0,519257	4,999847
0,079000	0,515289	2,992401
0,080000	0,525818	2,542877
0,081000	0,526733	4,999847
0,082000	0,531464	4,279938
0,083000	0,522614	4,999847
0,084000	0,517426	4,999847
0,085000	0,523071	4,999847
0,086000	0,529480	4,999847
0,087000	0,530243	4,999847
0,088000	0,533295	4,744110
0,089000	0,538025	4,778900
0,090000	0,534668	3,056641
0,091000	0,527496	4,911957
0,092000	0,490265	2,580261
0,093000	0,450592	4,999847
0,094000	0,460205	4,999847
0,095000	0,444489	4,999847
0,096000	0,474091	4,999847
0,097000	0,505829	4,999847
0,098000	0,518646	4,999847
0,099000	0,520935	3,085480
0,100000	0,522461	3,312073
0,101000	0,526428	4,921417
0,102000	0,527344	4,999847
0,103000	0,531464	4,999847
0,104000	0,527039	4,999847
0,105000	0,532074	4,999847
0,106000	0,538788	4,999847
0,107000	0,529022	4,999847
0,108000	0,529633	4,999847
0,109000	0,530243	4,472961
0,110000	0,539398	2,348633
0,111000	0,539551	3,651886
0,112000	0,543365	3,514862
0,113000	0,539703	4,999847
0,114000	0,541229	4,999847
0,115000	0,539856	4,999847
0,116000	0,532532	4,999847
0,117000	0,536652	4,999847
0,118000	0,523682	4,601135
0,119000	0,523987	3,767548
0,120000	0,531616	3,813629
0,121000	0,538330	2,882996
0,122000	0,537872	4,999847
0,123000	0,539246	4,999847
0,124000	0,535431	4,999847
0,125000	0,533600	4,999847
0,126000	0,504456	4,999847
0,127000	0,495148	4,999847
0,128000	0,516052	4,999847
0,129000	0,524902	4,234009
0,130000	0,530548	3,481598
0,131000	0,528717	3,601074
0,132000	0,489197	3,545990
0,133000	0,504913	4,999847
0,134000	0,515900	4,999847
0,135000	0,525513	4,999847
0,136000	0,524597	4,999847
0,137000	0,531006	4,999847
0,138000	0,533447	4,999847
0,139000	0,538940	3,566742
0,140000	0,536041	3,336792
0,141000	0,539246	4,181519
0,142000	0,533295	4,999847
0,143000	0,536804	4,999847
0,144000	0,536041	4,999847
0,145000	0,536194	4,999847
0,146000	0,539856	4,999847
0,147000	0,541840	4,999847
0,148000	0,545807	4,999847
0,149000	0,543823	3,775177
0,150000	0,550385	3,528137
0,151000	0,551605	3,804932
0,152000	0,556946	3,115082
0,153000	0,554352	4,999847
0,154000	0,561981	4,999847
0,155000	0,556641	4,999847
0,156000	0,562439	4,999847
0,157000	0,571747	4,999847
0,158000	0,576019	4,688568
0,159000	0,577850	4,253387
0,160000	0,579071	2,551575
0,161000	0,580902	4,302826
0,162000	0,572815	4,999847
0,163000	0,575714	4,999847
0,164000	0,563202	4,999847
0,165000	0,580139	4,999847
0,166000	0,547180	4,999847
0,167000	0,575714	4,999847
0,168000	0,545654	4,999847
0,169000	0,575256	4,093018
0,170000	0,562134	2,527161
0,171000	0,560455	4,118805
0,172000	0,524902	4,438171
0,173000	0,529022	4,999847
0,174000	0,529022	4,999847
0,175000	0,534668	4,999847
0,176000	0,562592	4,999847
0,177000	0,557709	4,999847
0,178000	0,582123	4,999847
0,179000	0,561523	4,338989
0,180000	0,589294	4,425049
0,181000	0,564880	3,042297
0,182000	0,598145	4,979553
0,183000	0,573273	4,999847
0,184000	0,597076	4,999847
0,185000	0,576477	4,999847
0,186000	0,591583	4,999847
0,187000	0,588684	4,999847
0,188000	0,591431	4,810791
0,189000	0,595245	4,999847
0,190000	0,585785	4,230194
0,191000	0,599670	4,090576
0,192000	0,579834	4,336700
0,193000	0,605621	4,999847
0,194000	0,584717	4,999847
0,195000	0,614319	4,999847
0,196000	0,587463	4,999847
0,197000	0,620270	4,999847
0,198000	0,591888	4,704132
0,199000	0,614471	3,878479
0,200000	0,598907	2,444305
0,201000	0,610199	4,999847
0,202000	0,607910	4,999847
0,203000	0,610504	4,999847
0,204000	0,618896	4,999847
0,205000	0,606689	4,999847
0,206000	0,623627	4,999847
0,207000	0,602417	4,999847
0,208000	0,628510	4,999847
0,209000	0,595551	3,668365
0,210000	0,633392	3,075104
0,211000	0,580139	4,235077
0,212000	0,626526	4,416351
0,213000	0,596008	4,999847
0,214000	0,618896	4,999847
0,215000	0,602264	4,999847
0,216000	0,611115	4,999847
0,217000	0,608826	4,999847
0,218000	0,605316	4,282684
0,219000	0,621185	4,496613
0,220000	0,591888	3,614807
0,221000	0,624237	2,775269
0,222000	0,591583	4,999847
0,223000	0,635681	4,999847
0,224000	0,588837	4,999847
0,225000	0,644226	4,999847
0,226000	0,585327	4,999847
0,227000	0,632477	4,999847
0,228000	0,567932	4,999847
0,229000	0,580444	4,283142
0,230000	0,589752	2,548981
0,231000	0,595703	4,740143
0,232000	0,605316	3,120422
0,233000	0,604553	4,312744
0,234000	0,631561	4,999847
0,235000	0,607758	4,999847
0,236000	0,644989	4,999847
0,237000	0,595703	4,999847
0,238000	0,651703	4,632568
0,239000	0,600128	4,522247
0,240000	0,660706	3,678284
0,241000	0,616913	3,900452
0,242000	0,656738	4,618073
0,243000	0,632629	4,999847
0,244000	0,625610	4,999847
0,245000	0,597229	4,999847
0,246000	0,625916	4,999847
0,247000	0,647736	4,999847
0,248000	0,639191	4,999847
0,249000	0,665894	4,517975
0,250000	0,635071	3,926849
0,251000	0,675354	3,561707
0,252000	0,617065	4,460297
0,253000	0,677032	4,999847
0,254000	0,617828	4,999847
0,255000	0,679321	4,999847
0,256000	0,643311	4,999847
0,257000	0,676727	4,999847
0,258000	0,633698	4,822693
0,259000	0,659943	4,069061
0,260000	0,663757	2,964783
0,261000	0,660248	4,075012
0,262000	0,676422	4,999847
0,263000	0,652924	4,999847
0,264000	0,684052	4,999847
0,265000	0,645905	4,999847
0,266000	0,688171	4,999847
0,267000	0,632629	4,999847
0,268000	0,699310	4,999847
0,269000	0,612183	4,391785
0,270000	0,681000	2,722626
0,271000	0,639648	4,397736
0,272000	0,671539	3,242493
0,273000	0,655060	4,999847
0,274000	0,665283	4,999847
0,275000	0,668182	4,999847
0,276000	0,653992	4,999847
0,277000	0,683136	4,999847
0,278000	0,640717	4,493866
0,279000	0,688477	4,009705
0,280000	0,627594	3,683624
0,281000	0,697937	4,537354
0,282000	0,612640	4,148865
0,283000	0,702667	4,999847
0,284000	0,613098	4,999847
0,285000	0,681763	4,999847
0,286000	0,639343	4,999847
0,287000	0,669861	4,999847
0,288000	0,652924	4,999847
0,289000	0,652618	4,215698
0,290000	0,664673	2,841797
0,291000	0,632935	4,999847
0,292000	0,675507	4,397125
0,293000	0,620422	4,999847
0,294000	0,691376	4,999847
0,295000	0,613556	4,999847
0,296000	0,706787	4,999847
0,297000	0,602112	4,999847
0,298000	0,555115	4,728241
0,299000	0,543976	3,579865
0,300000	0,539703	3,208618
0,301000	0,627747	3,428345
0,302000	0,635834	4,999847
0,303000	0,693817	4,999847
0,304000	0,648041	4,999847
0,305000	0,716095	4,999847
0,306000	0,643616	4,999847
0,307000	0,730286	4,999847
0,308000	0,641479	4,999847
0,309000	0,729828	4,640961
0,310000	0,665588	3,705750
0,311000	0,716095	4,096832
0,312000	0,679626	3,826752
0,313000	0,701294	4,999847
0,314000	0,699005	4,999847
0,315000	0,685120	4,999847
0,316000	0,711975	4,999847
0,317000	0,676727	4,999847
0,318000	0,729980	4,999847
0,319000	0,673828	4,221191
0,320000	0,745697	4,522858
0,321000	0,667877	3,439178
0,322000	0,758667	4,999847
0,323000	0,666351	4,999847
0,324000	0,747528	4,999847
0,325000	0,688934	4,999847
0,326000	0,730743	4,999847
0,327000	0,702362	4,999847
0,328000	0,713043	4,999847
0,329000	0,719910	4,390259
0,330000	0,697174	3,802948
0,331000	0,700073	4,938507
0,332000	0,639191	3,989258
0,333000	0,698242	4,999847
0,334000	0,622101	4,999847
0,335000	0,707703	4,999847
0,336000	0,628510	4,999847
0,337000	0,757446	4,999847
0,338000	0,677032	4,050751
0,339000	0,756683	3,418427
0,340000	0,701752	4,642334
0,341000	0,740662	3,076324
0,342000	0,723267	4,999847
0,343000	0,730438	4,999847
0,344000	0,744781	4,999847
0,345000	0,722351	4,999847
0,346000	0,729980	4,999847
0,347000	0,678253	4,999847
0,348000	0,744171	4,970093
0,349000	0,668945	4,387207
0,350000	0,757294	4,129791
0,351000	0,663452	4,909668
0,352000	0,765839	4,092407
0,353000	0,684052	4,999847
0,354000	0,748444	4,999847
0,355000	0,703583	4,999847
0,356000	0,733185	4,999847
0,357000	0,720673	4,999847
0,358000	0,711823	4,173889
0,359000	0,733795	3,369293
0,360000	0,694427	3,553925
0,361000	0,746918	3,333588
0,362000	0,673981	4,779968
0,363000	0,755920	4,999847
0,364000	0,656433	4,999847
0,365000	0,766602	4,999847
0,366000	0,658417	4,999847
0,367000	0,754242	4,999847
0,368000	0,682831	4,999847
0,369000	0,737610	3,854980
0,370000	0,705872	2,903442
0,371000	0,719299	4,214325
0,372000	0,724640	4,206085
0,373000	0,702209	4,999847
0,374000	0,741730	4,999847
0,375000	0,688477	4,999847
0,376000	0,757599	4,999847
0,377000	0,677795	4,999847
0,378000	0,774994	4,205322
0,379000	0,673370	3,195648
0,380000	0,791779	3,314972
0,381000	0,691071	3,609314
0,382000	0,782166	4,999847
0,383000	0,717468	4,999847
0,384000	0,769501	4,999847
0,385000	0,744324	4,999847
0,386000	0,759583	4,999847
0,387000	0,765076	4,999847
0,388000	0,744171	4,999847
0,389000	0,782471	3,689575
0,390000	0,732422	2,914429
0,391000	0,799103	3,661499
0,392000	0,720367	4,020691
0,393000	0,813904	4,741058
0,394000	0,705414	4,999847
0,395000	0,825348	4,999847
0,396000	0,729523	4,999847
0,397000	0,813599	4,999847
0,398000	0,751648	4,999847
0,399000	0,794983	2,952271
0,400000	0,771179	4,402008
0,401000	0,775757	2,802124
0,402000	0,789032	4,999847
0,403000	0,760651	4,999847
0,404000	0,806122	4,999847
0,405000	0,749359	4,999847
0,406000	0,824280	4,999847
0,407000	0,739441	4,999847
0,408000	0,841370	4,999847
0,409000	0,737610	4,220428
0,410000	0,851746	4,207306
0,411000	0,760040	3,995667
0,412000	0,836792	4,675903
0,413000	0,782013	4,999847
0,414000	0,818787	4,999847
0,415000	0,801849	4,999847
0,416000	0,802765	4,999847
0,417000	0,820465	4,999847
0,418000	0,789185	4,999847
0,419000	0,839081	3,588409
0,420000	0,773621	4,359283
0,421000	0,854797	3,690338
0,422000	0,756683	4,999847
0,423000	0,867767	4,999847
0,424000	0,763702	4,999847
0,425000	0,865021	4,999847
0,426000	0,783386	4,999847
0,427000	0,841980	4,999847
0,428000	0,802307	4,438324
0,429000	0,824738	4,405518
0,430000	0,821991	3,253326
0,431000	0,808563	3,615723
0,432000	0,840912	4,158325
0,433000	0,764008	4,999847
0,434000	0,823822	4,999847
0,435000	0,761871	4,999847
0,436000	0,864868	4,999847
0,437000	0,758972	4,999847
0,438000	0,878601	4,999847
0,439000	0,777893	3,842926
0,440000	0,858154	3,541870
0,441000	0,798187	4,338226
0,442000	0,841675	4,999847
0,443000	0,820312	4,999847
0,444000	0,823822	4,999847
0,445000	0,839386	4,999847
0,446000	0,814056	4,999847
0,447000	0,861359	4,999847
0,448000	0,797119	4,999847
0,449000	0,875244	4,730377
0,450000	0,780792	3,731232
0,451000	0,884857	4,497223
0,452000	0,780640	4,346771
0,453000	0,888367	4,999847
0,454000	0,802612	4,999847
0,455000	0,878601	4,999847
0,456000	0,827179	4,999847
0,457000	0,856781	4,999847
0,458000	0,846710	4,661560
0,459000	0,840302	3,881836
0,460000	0,865784	2,694702
0,461000	0,822601	4,286652
0,462000	0,879669	4,999847
0,463000	0,801239	4,999847
0,464000	0,887299	4,999847
0,465000	0,787811	4,999847
0,466000	0,892487	4,999847
0,467000	0,773926	4,999847
0,468000	0,705261	4,999847
0,469000	0,674438	4,905396
0,470000	0,659485	3,502350
0,471000	0,652924	4,908295
0,472000	0,652161	3,113098
0,473000	0,652161	4,999847
0,474000	0,652161	4,999847
0,475000	0,652008	4,999847
0,476000	0,651855	4,999847
0,477000	0,651245	4,999847
0,478000	0,651550	4,999847
0,479000	0,651703	3,941193
0,480000	0,650482	4,037781
0,481000	0,649109	4,176788
0,482000	0,648499	4,999847
0,483000	0,647736	4,999847
0,484000	0,647278	4,999847
0,485000	0,647125	4,999847
0,486000	0,646667	4,999847
0,487000	0,646820	4,999847
0,488000	0,594177	4,999847
0,489000	0,566559	4,999847
0,490000	0,555420	3,337097
0,491000	0,553131	4,753876
0,492000	0,548859	2,953186
0,493000	0,550537	4,999847
0,494000	0,549469	4,999847
0,495000	0,551453	4,999847
0,496000	0,551605	4,999847
0,497000	0,554657	4,999847
0,498000	0,556335	4,999847
0,499000	0,558929	4,138336
0,500000	0,561218	3,481903
0,501000	0,564423	3,740997
0,502000	0,565338	4,359741
0,503000	0,563812	4,999847
0,504000	0,564880	4,999847
0,505000	0,563202	4,999847
0,506000	0,564728	4,999847
0,507000	0,565796	4,999847
0,508000	0,564728	4,999847
0,509000	0,563507	4,708099
0,510000	0,567322	3,619843
0,511000	0,568542	4,471283
0,512000	0,567932	3,455353
0,513000	0,563660	4,999847
0,514000	0,563812	4,999847
0,515000	0,559845	4,999847
0,516000	0,561066	4,999847
0,517000	0,559998	4,999847
0,518000	0,560150	4,999847
0,519000	0,561523	4,344940
0,520000	0,557098	3,474884
0,521000	0,559540	4,999847
0,522000	0,555725	4,044647
0,523000	0,551605	4,999847
0,524000	0,537415	4,999847
0,525000	0,524597	4,999847
0,526000	0,520325	4,999847
0,527000	0,520325	4,999847
0,528000	0,518188	4,745483
0,529000	0,524445	4,627686
0,530000	0,525665	3,399506
0,531000	0,525513	4,552460
0,532000	0,532379	3,737640
0,533000	0,536499	4,999847
0,534000	0,541992	4,999847
0,535000	0,521088	4,999847
0,536000	0,497894	4,999847
0,537000	0,490417	4,999847
0,538000	0,477600	4,910278
0,539000	0,479126	3,414764
0,540000	0,482483	3,348694
0,541000	0,485077	2,982483
0,542000	0,488434	4,999847
0,543000	0,507050	4,999847
0,544000	0,524750	4,999847
0,545000	0,530701	4,999847
0,546000	0,533295	4,999847
0,547000	0,534821	4,999847
0,548000	0,532990	4,999847
0,549000	0,536346	4,039917
0,550000	0,536041	2,972412
0,551000	0,538635	4,221497
0,552000	0,532074	4,450989
0,553000	0,535736	4,999847
0,554000	0,537567	4,999847
0,555000	0,544739	4,999847
0,556000	0,540619	4,999847
0,557000	0,538483	4,999847
0,558000	0,541992	4,461212
0,559000	0,549927	3,864746
0,560000	0,553741	4,040680
0,561000	0,549927	3,303833
0,562000	0,549469	4,710236
0,563000	0,548401	4,999847
0,564000	0,549164	4,999847
0,565000	0,546722	4,999847
0,566000	0,546722	4,999847
0,567000	0,544128	4,999847
0,568000	0,475311	4,999847
0,569000	0,505219	4,247894
0,570000	0,523529	3,682709
0,571000	0,540924	4,999847
0,572000	0,553436	3,350830
0,573000	0,559082	4,999847
0,574000	0,560608	4,999847
0,575000	0,559540	4,999847
0,576000	0,556946	4,999847
0,577000	0,558319	4,999847
0,578000	0,555267	4,936218
0,579000	0,553741	3,018341
0,580000	0,550995	3,995667
0,581000	0,535278	3,137970
0,582000	0,542145	4,727783
0,583000	0,541840	4,999847
0,584000	0,545349	4,999847
0,585000	0,544281	4,999847
0,586000	0,552216	4,999847
0,587000	0,555878	4,999847
0,588000	0,553589	4,999847
0,589000	0,552063	4,172668
0,590000	0,550995	3,723297
0,591000	0,554047	4,026794
0,592000	0,548096	4,046021
0,593000	0,552673	4,999847
0,594000	0,539093	4,999847
0,595000	0,552216	4,999847
0,596000	0,537720	4,999847
0,597000	0,550537	4,999847
0,598000	0,525818	4,999847
0,599000	0,524902	3,322601
0,600000	0,483856	2,872314
0,601000	0,490875	3,459625
0,602000	0,485077	4,999847
0,603000	0,477600	4,999847
0,604000	0,494537	4,999847
0,605000	0,468903	4,999847
0,606000	0,504761	4,999847
0,607000	0,462341	4,999847
0,608000	0,516663	4,999847
0,609000	0,460663	4,956512
0,610000	0,532074	3,639984
0,611000	0,459290	3,585358
0,612000	0,521545	4,215698
0,613000	0,516357	4,729614
0,614000	0,554047	4,999847
0,615000	0,570831	4,999847
0,616000	0,602722	4,999847
0,617000	0,608521	4,999847
0,618000	0,611877	4,523468
0,619000	0,617828	3,500977
0,620000	0,616150	3,139343
0,621000	0,624390	4,207306
0,622000	0,617065	4,999847
0,623000	0,626678	4,999847
0,624000	0,616150	4,999847
0,625000	0,628662	4,999847
0,626000	0,617828	4,999847
0,627000	0,626221	4,999847
0,628000	0,618134	4,999847
0,629000	0,623627	4,709167
0,630000	0,621185	4,657745
0,631000	0,623474	3,747406
0,632000	0,626984	4,401550
0,633000	0,622101	4,999847
0,634000	0,629730	4,999847
0,635000	0,619354	4,999847
0,636000	0,633392	4,999847
0,637000	0,616302	4,999847
0,638000	0,589752	4,999847
0,639000	0,550385	3,167267
0,640000	0,572357	4,464417
0,641000	0,557404	2,958679
0,642000	0,581665	4,999847
0,643000	0,563202	4,999847
0,644000	0,574799	4,999847
0,645000	0,576477	4,999847
0,646000	0,559082	4,999847
0,647000	0,585480	4,999847
0,648000	0,594330	4,999847
0,649000	0,624390	4,999847
0,650000	0,611725	4,014130
0,651000	0,640106	3,159332
0,652000	0,610046	4,075623
0,653000	0,645905	4,999847
0,654000	0,612488	4,999847
0,655000	0,645294	4,999847
0,656000	0,621643	4,999847
0,657000	0,640259	4,999847
0,658000	0,631104	4,999847
0,659000	0,633392	3,292847
0,660000	0,633240	4,048309
0,661000	0,629578	4,501343
0,662000	0,643463	4,502869
0,663000	0,627136	4,993286
0,664000	0,651855	4,999847
0,665000	0,620117	4,999847
0,666000	0,655365	4,999847
0,667000	0,616150	4,999847
0,668000	0,662079	4,999847
0,669000	0,625000	4,118500
0,670000	0,659485	4,435577
0,671000	0,642548	4,941559
0,672000	0,658112	4,540710
0,673000	0,652313	4,849396
0,674000	0,656128	4,999847
0,675000	0,661469	4,999847
0,676000	0,652924	4,999847
0,677000	0,669250	4,999847
0,678000	0,643768	4,999847
0,679000	0,673065	3,667755
0,680000	0,643616	3,070068
0,681000	0,681763	3,885040
0,682000	0,635529	4,987793
0,683000	0,681610	4,999847
0,684000	0,641174	4,999847
0,685000	0,671844	4,999847
0,686000	0,647125	4,999847
0,687000	0,660553	4,999847
0,688000	0,650482	4,776306
0,689000	0,648041	4,436951
0,690000	0,660400	4,481049
0,691000	0,636292	3,774109
0,692000	0,669403	3,637238
0,693000	0,637512	4,999847
0,694000	0,680389	4,999847
0,695000	0,631409	4,999847
0,696000	0,689545	4,999847
0,697000	0,634155	4,999847
0,698000	0,689087	4,680328
0,699000	0,645447	3,407440
0,700000	0,676270	3,980408
0,701000	0,657196	3,470764
0,702000	0,665283	4,532623
0,703000	0,664520	4,999847
0,704000	0,656128	4,999847
0,705000	0,675354	4,999847
0,706000	0,642700	4,999847
0,707000	0,682068	4,999847
0,708000	0,632324	4,575653
0,709000	0,691833	4,864197
0,710000	0,629730	3,554840
0,711000	0,704346	4,999847
0,712000	0,646973	4,266510
0,713000	0,702667	4,999847
0,714000	0,668793	4,999847
0,715000	0,696106	4,999847
0,716000	0,675354	4,999847
0,717000	0,677185	4,999847
0,718000	0,682373	4,999847
0,719000	0,662537	4,107971
0,720000	0,690002	3,677521
0,721000	0,653687	2,926636
0,722000	0,703278	4,999847
0,723000	0,651550	4,999847
0,724000	0,716553	4,999847
0,725000	0,641937	4,999847
0,726000	0,720062	4,999847
0,727000	0,652161	4,999847
0,728000	0,704803	4,999847
0,729000	0,661163	4,495850
0,730000	0,667725	3,318024
0,731000	0,655060	4,659576
0,732000	0,646210	4,239044
0,733000	0,664368	4,999847
0,734000	0,639343	4,999847
0,735000	0,560150	4,999847
0,736000	0,544128	4,999847
0,737000	0,533295	4,999847
0,738000	0,502014	4,999847
0,739000	0,620422	3,311005
0,740000	0,535126	3,658905
0,741000	0,615692	3,497162
0,742000	0,531769	4,756775
0,743000	0,662994	4,999847
0,744000	0,579376	4,999847
0,745000	0,659027	4,999847
0,746000	0,608978	4,999847
0,747000	0,645905	4,999847
0,748000	0,631714	4,999847
0,749000	0,631561	4,364319
0,750000	0,651855	2,710724
0,751000	0,619049	4,654388
0,752000	0,670013	4,011688
0,753000	0,607300	4,767914
0,754000	0,686188	4,999847
0,755000	0,597382	4,999847
0,756000	0,701294	4,999847
0,757000	0,589752	4,999847
0,758000	0,694733	4,999847
0,759000	0,613861	3,605499
0,760000	0,677185	3,963776
0,761000	0,637512	2,893372
0,762000	0,661469	4,999847
0,763000	0,658112	4,845428
0,764000	0,647430	4,999847
0,765000	0,677643	4,999847
0,766000	0,635071	4,999847
0,767000	0,695190	4,999847
0,768000	0,624237	4,999847
0,769000	0,710907	4,118652
0,770000	0,614777	3,286591
0,771000	0,725708	4,610138
0,772000	0,616760	3,856354
0,773000	0,709534	4,711456
0,774000	0,642090	4,999847
0,775000	0,692291	4,999847
0,776000	0,663910	4,999847
0,777000	0,676880	4,999847
0,778000	0,684662	4,999847
0,779000	0,663452	3,418121
0,780000	0,703735	3,225555
0,781000	0,652008	3,389740
0,782000	0,720978	4,999847
0,783000	0,641479	4,999847
0,784000	0,736542	4,999847
0,785000	0,632629	4,999847
0,786000	0,743713	4,999847
0,787000	0,645294	4,999847
0,788000	0,724792	4,999847
0,789000	0,669403	3,707581
0,790000	0,708008	3,356781
0,791000	0,691528	4,352112
0,792000	0,693512	4,042511
0,793000	0,711975	4,999847
0,794000	0,680389	4,999847
0,795000	0,729980	4,999847
0,796000	0,668945	4,999847
0,797000	0,746460	4,999847
0,798000	0,658875	4,999847
0,799000	0,761871	3,812408
0,800000	0,649567	3,883209
0,801000	0,758209	4,035950
0,802000	0,673370	4,999847
0,803000	0,739746	4,999847
0,804000	0,696869	4,999847
0,805000	0,723572	4,999847
0,806000	0,718079	4,999847
0,807000	0,709534	4,999847
0,808000	0,737762	4,999847
0,809000	0,696716	4,651794
0,810000	0,755920	3,556824
0,811000	0,685730	4,471741
0,812000	0,772247	3,807068
0,813000	0,676270	4,999847
0,814000	0,787201	4,999847
0,815000	0,675964	4,999847
0,816000	0,772552	4,999847
0,817000	0,700989	4,999847
0,818000	0,754700	4,841156
0,819000	0,723572	3,440247
0,820000	0,738983	3,236237
0,821000	0,744629	3,480682
0,822000	0,725708	4,999847
0,823000	0,763855	4,999847
0,824000	0,713348	4,999847
0,825000	0,781403	4,999847
0,826000	0,702667	4,999847
0,827000	0,797119	4,999847
0,828000	0,692596	4,999847
0,829000	0,806427	4,287262
0,830000	0,703583	3,251801
0,831000	0,787201	4,999847
0,832000	0,727997	3,732910
0,833000	0,770111	4,999847
0,834000	0,750580	4,999847
0,835000	0,755157	4,999847
0,836000	0,770569	4,999847
0,837000	0,741882	4,999847
0,838000	0,789642	4,872894
0,839000	0,730438	4,276276
0,840000	0,806274	3,653870
0,841000	0,719604	3,807831
0,842000	0,815735	4,999847
0,843000	0,659943	4,999847
0,844000	0,773163	4,999847
0,845000	0,709686	4,999847
0,846000	0,791626	4,999847
0,847000	0,750275	4,999847
0,848000	0,784454	4,999847
0,849000	0,776062	4,172516
0,850000	0,771637	3,550415
0,851000	0,796661	3,945465
0,852000	0,759430	4,069672
0,853000	0,815430	4,999847
0,854000	0,747986	4,999847
0,855000	0,832672	4,999847
0,856000	0,737152	4,999847
0,857000	0,849762	4,999847
0,858000	0,734406	4,999847
0,859000	0,838928	4,114075
0,860000	0,760193	4,018707
0,861000	0,821381	3,455505
0,862000	0,783081	4,999847
0,863000	0,805511	4,999847
0,864000	0,803528	4,999847
0,865000	0,790253	4,999847
0,866000	0,823517	4,999847
0,867000	0,777740	4,999847
0,868000	0,842743	4,999847
0,869000	0,765381	3,499451
0,870000	0,860748	3,592834
0,871000	0,755310	3,754425
0,872000	0,873260	4,063873
0,873000	0,762787	4,999847
0,874000	0,854340	4,999847
0,875000	0,787506	4,999847
0,876000	0,837402	4,999847
0,877000	0,809174	4,999847
0,878000	0,821686	4,946442
0,879000	0,829773	3,996582
0,880000	0,806122	4,005737
0,881000	0,849304	3,273315
0,882000	0,792236	4,999847
0,883000	0,868073	4,999847
0,884000	0,779724	4,999847
0,885000	0,884094	4,999847
0,886000	0,768433	4,999847
0,887000	0,863342	4,999847
0,888000	0,769958	4,633331
0,889000	0,844269	3,820648
0,890000	0,792084	3,551941
0,891000	0,827484	4,245605
0,892000	0,813446	3,639069
0,893000	0,811310	4,999847
0,894000	0,833893	4,999847
0,895000	0,796661	4,999847
0,896000	0,852509	4,999847
0,897000	0,783081	4,999847
0,898000	0,868378	4,699554
0,899000	0,770721	3,248596
0,900000	0,879974	4,011688
0,901000	0,763245	4,999847
0,902000	0,864563	4,893188
0,903000	0,787659	4,999847
0,904000	0,844727	4,999847
0,905000	0,740051	4,999847
0,906000	0,689545	4,999847
0,907000	0,664520	4,999847
0,908000	0,652618	4,999847
0,909000	0,647125	4,630737
0,910000	0,644379	4,011993
0,911000	0,643158	3,263245
0,912000	0,642853	4,133759
0,913000	0,642242	4,999847
0,914000	0,642242	4,999847
0,915000	0,641937	4,999847
0,916000	0,641785	4,999847
0,917000	0,641479	4,999847
0,918000	0,641174	4,999847
0,919000	0,641479	3,973694
0,920000	0,641327	2,961121
0,921000	0,641632	3,008575
0,922000	0,641327	4,999847
0,923000	0,641479	4,999847
0,924000	0,641785	4,999847
0,925000	0,641632	4,999847
0,926000	0,641632	4,999847
0,927000	0,641632	4,999847
0,928000	0,641632	4,999847
0,929000	0,641327	4,614868
0,930000	0,641174	3,513794
0,931000	0,640564	4,091797
0,932000	0,602722	3,030853
0,933000	0,582581	4,999847
0,934000	0,573883	4,999847
0,935000	0,572968	4,999847
0,936000	0,578156	4,999847
0,937000	0,578308	4,999847
0,938000	0,579834	4,919739
0,939000	0,582428	3,184967
0,940000	0,583038	4,290924
0,941000	0,580139	3,880310
0,942000	0,581665	4,999847
0,943000	0,588379	4,999847
0,944000	0,592346	4,999847
0,945000	0,537720	4,999847
0,946000	0,530701	4,999847
0,947000	0,526276	4,999847
0,948000	0,527344	4,960937
0,949000	0,532684	4,008331
0,950000	0,538788	3,949738
0,951000	0,566254	3,887939
0,952000	0,579834	4,224854
0,953000	0,585175	4,999847
0,954000	0,590668	4,999847
0,955000	0,596924	4,999847
0,956000	0,597687	4,999847
0,957000	0,597992	4,999847
0,958000	0,595551	4,999847
0,959000	0,593872	3,756714
0,960000	0,596008	3,867950
0,961000	0,593719	3,948212
0,962000	0,594940	4,999847
0,963000	0,595856	4,999847
0,964000	0,595703	4,999847
0,965000	0,597076	4,999847
0,966000	0,597076	4,999847
0,967000	0,594177	4,999847
0,968000	0,596466	4,788361
0,969000	0,598297	4,997711
0,970000	0,603027	2,965240
0,971000	0,604706	4,457703
0,972000	0,600586	4,716034
0,973000	0,604553	4,999847
0,974000	0,603638	4,999847
0,975000	0,602112	4,999847
0,976000	0,600433	4,999847
0,977000	0,599213	4,999847
0,978000	0,600281	4,999847
0,979000	0,604401	3,726349
0,980000	0,601044	3,399048
0,981000	0,597076	3,248444
0,982000	0,597534	4,999847
0,983000	0,592346	4,999847
0,984000	0,589905	4,999847
0,985000	0,589447	4,999847
0,986000	0,597992	4,999847
0,987000	0,606232	4,999847
0,988000	0,607452	4,999847
0,989000	0,605927	4,707642
0,990000	0,601959	3,951569
0,991000	0,595245	4,335480
0,992000	0,593719	4,252319
0,993000	0,595551	4,999847
0,994000	0,598450	4,999847
0,995000	0,597229	4,999847
0,996000	0,599213	4,999847
0,997000	0,602112	4,999847
0,998000	0,602570	4,502258
0,999000	0,596161	4,032135

