LabVIEW Measurement	
Writer_Version	2
Reader_Version	2
Separator	Tab
Decimal_Separator	,
Multi_Headings	Yes
X_Columns	One
Time_Pref	Absolute
Operator	d.nicolai
Date	2023/11/09
Time	16:04:05,6565121999996605588
***End_of_Header***	
	
Channels	2		
Samples	1000	1000	
Date	2023/11/09	2023/11/09	
Time	16:04:29,0345122999999826267	16:04:29,0345122999999826267	
Y_Unit_Label	Volts	Volts	
X_Dimension	Time	Time	
X0	0,0000000000000000E+0	0,0000000000000000E+0	
Delta_X	0,001000	0,001000	
***End_of_Header***			
X_Value	powebox	triggerbox	Comment
0,000000	0,677338	0,761261
0,001000	0,595856	4,204865
0,002000	0,671844	4,999847
0,003000	0,628967	4,999847
0,004000	0,661621	4,999847
0,005000	0,652618	4,999847
0,006000	0,650940	4,999847
0,007000	0,670319	4,999847
0,008000	0,640106	4,999847
0,009000	0,685730	4,161224
0,010000	0,630341	3,691864
0,011000	0,699310	4,096680
0,012000	0,624847	3,921814
0,013000	0,717621	4,999847
0,014000	0,623779	4,999847
0,015000	0,717010	4,999847
0,016000	0,645599	4,999847
0,017000	0,699158	4,999847
0,018000	0,664673	4,999847
0,019000	0,686951	3,714294
0,020000	0,682983	1,336823
0,021000	0,672302	4,545288
0,022000	0,696869	4,999847
0,023000	0,659943	4,999847
0,024000	0,702057	4,999847
0,025000	0,621033	4,999847
0,026000	0,710907	4,999847
0,027000	0,629120	4,999847
0,028000	0,731812	4,952240
0,029000	0,638885	3,555450
0,030000	0,723114	3,067780
0,031000	0,655212	4,576721
0,032000	0,701599	4,438477
0,033000	0,673523	4,999847
0,034000	0,685120	4,999847
0,035000	0,691223	4,999847
0,036000	0,670624	4,999847
0,037000	0,708008	4,999847
0,038000	0,657501	4,999847
0,039000	0,724182	3,546295
0,040000	0,645752	3,769531
0,041000	0,736694	4,805145
0,042000	0,638428	4,999847
0,043000	0,750275	4,999847
0,044000	0,654144	4,999847
0,045000	0,730133	4,999847
0,046000	0,674591	4,999847
0,047000	0,711517	4,999847
0,048000	0,693970	4,999847
0,049000	0,700378	3,576508
0,050000	0,714874	4,999847
0,051000	0,686035	3,689728
0,052000	0,731354	4,693146
0,053000	0,669403	4,999847
0,054000	0,744171	4,999847
0,055000	0,659637	4,999847
0,056000	0,757446	4,999847
0,057000	0,647888	4,999847
0,058000	0,754700	4,999847
0,059000	0,672607	3,422241
0,060000	0,740509	3,623047
0,061000	0,696716	4,999847
0,062000	0,726318	4,999847
0,063000	0,717010	4,999847
0,064000	0,706482	4,999847
0,065000	0,733643	4,999847
0,066000	0,697937	4,999847
0,067000	0,751801	4,999847
0,068000	0,683136	4,999847
0,069000	0,766144	3,830109
0,070000	0,674133	4,188080
0,071000	0,781403	3,995819
0,072000	0,680389	4,264374
0,073000	0,782318	4,999847
0,074000	0,704193	4,999847
0,075000	0,764465	4,999847
0,076000	0,725250	4,999847
0,077000	0,745087	4,999847
0,078000	0,743408	4,999847
0,079000	0,733948	3,041687
0,080000	0,762177	2,949524
0,081000	0,717468	4,658051
0,082000	0,777435	4,999847
0,083000	0,703583	4,999847
0,084000	0,792847	4,999847
0,085000	0,697479	4,999847
0,086000	0,809631	4,999847
0,087000	0,709839	4,999847
0,088000	0,804749	4,999847
0,089000	0,733948	3,354340
0,090000	0,787506	4,215851
0,091000	0,754089	4,222107
0,092000	0,766754	4,394836
0,093000	0,770416	4,999847
0,094000	0,752106	4,999847
0,095000	0,788574	4,999847
0,096000	0,739746	4,999847
0,097000	0,806122	4,999847
0,098000	0,730591	4,931488
0,099000	0,823669	3,308716
0,100000	0,725250	4,067993
0,101000	0,839233	4,999847
0,102000	0,747070	4,999847
0,103000	0,839386	4,999847
0,104000	0,769653	4,999847
0,105000	0,815277	4,999847
0,106000	0,786591	4,999847
0,107000	0,798187	4,999847
0,108000	0,804291	4,999847
0,109000	0,786438	4,082489
0,110000	0,823975	3,551483
0,111000	0,766296	3,749237
0,112000	0,836334	4,361572
0,113000	0,750732	4,999847
0,114000	0,846100	4,999847
0,115000	0,751038	4,999847
0,116000	0,850220	4,999847
0,117000	0,765991	4,999847
0,118000	0,844421	3,806763
0,119000	0,789948	3,080750
0,120000	0,821381	4,036560
0,121000	0,807037	4,999847
0,122000	0,803680	4,999847
0,123000	0,824585	4,999847
0,124000	0,785980	4,999847
0,125000	0,838470	4,999847
0,126000	0,772247	4,999847
0,127000	0,825043	4,999847
0,128000	0,751190	4,999847
0,129000	0,853882	3,762360
0,130000	0,763702	3,879547
0,131000	0,853271	4,240265
0,132000	0,784149	4,999847
0,133000	0,838776	4,999847
0,134000	0,803986	4,999847
0,135000	0,820007	4,999847
0,136000	0,822601	4,999847
0,137000	0,806274	4,999847
0,138000	0,840607	4,999847
0,139000	0,788879	3,090210
0,140000	0,849915	2,473145
0,141000	0,772095	4,446106
0,142000	0,855408	4,999847
0,143000	0,758209	4,999847
0,144000	0,683594	4,999847
0,145000	0,649567	4,999847
0,146000	0,634003	4,999847
0,147000	0,626831	4,999847
0,148000	0,624084	4,577484
0,149000	0,622101	4,420013
0,150000	0,621185	2,810059
0,151000	0,620422	4,507141
0,152000	0,620270	4,257507
0,153000	0,620117	4,999847
0,154000	0,619965	4,999847
0,155000	0,619965	4,999847
0,156000	0,619965	4,999847
0,157000	0,619659	4,999847
0,158000	0,619202	4,977722
0,159000	0,619507	2,521362
0,160000	0,619202	4,226227
0,161000	0,619354	4,999847
0,162000	0,619202	4,999847
0,163000	0,618896	4,999847
0,164000	0,619049	4,999847
0,165000	0,597229	4,999847
0,166000	0,576172	4,999847
0,167000	0,567474	4,999847
0,168000	0,565491	4,400940
0,169000	0,566406	3,833771
0,170000	0,563965	4,965668
0,171000	0,565186	4,175110
0,172000	0,565948	4,716339
0,173000	0,567780	4,999847
0,174000	0,568237	4,999847
0,175000	0,567169	4,999847
0,176000	0,557251	4,999847
0,177000	0,551300	4,999847
0,178000	0,557861	4,208984
0,179000	0,568085	3,457031
0,180000	0,569611	3,076935
0,181000	0,571747	4,838257
0,182000	0,568390	4,999847
0,183000	0,570831	4,999847
0,184000	0,570526	4,999847
0,185000	0,568390	4,999847
0,186000	0,566711	4,999847
0,187000	0,563202	4,999847
0,188000	0,563049	4,999847
0,189000	0,562592	3,903351
0,190000	0,561066	3,714905
0,191000	0,554199	3,645630
0,192000	0,552521	4,192963
0,193000	0,558014	4,999847
0,194000	0,561676	4,999847
0,195000	0,554352	4,999847
0,196000	0,546112	4,999847
0,197000	0,537567	4,961243
0,198000	0,537720	4,999847
0,199000	0,533752	3,357697
0,200000	0,527649	2,912445
0,201000	0,526886	4,999847
0,202000	0,533905	4,999847
0,203000	0,531158	4,999847
0,204000	0,529022	4,999847
0,205000	0,528107	4,999847
0,206000	0,529938	4,999847
0,207000	0,531769	4,999847
0,208000	0,531311	4,999847
0,209000	0,524139	3,706665
0,210000	0,507660	4,418030
0,211000	0,513611	4,250336
0,212000	0,516052	4,999847
0,213000	0,526581	4,999847
0,214000	0,527344	4,999847
0,215000	0,532684	4,999847
0,216000	0,518799	4,999847
0,217000	0,503693	4,999847
0,218000	0,498047	4,177246
0,219000	0,500183	3,461761
0,220000	0,498810	2,905884
0,221000	0,507965	4,731903
0,222000	0,518188	4,999847
0,223000	0,521088	4,999847
0,224000	0,520325	4,999847
0,225000	0,520477	4,999847
0,226000	0,513916	4,999847
0,227000	0,506287	4,999847
0,228000	0,515442	4,999847
0,229000	0,494690	4,076691
0,230000	0,494537	4,595642
0,231000	0,511017	3,533630
0,232000	0,515900	4,999847
0,233000	0,516205	4,999847
0,234000	0,527954	4,999847
0,235000	0,530548	4,999847
0,236000	0,534515	4,999847
0,237000	0,538330	4,478760
0,238000	0,535126	4,960022
0,239000	0,531769	3,316345
0,240000	0,532990	2,938690
0,241000	0,534515	4,952545
0,242000	0,540466	4,999847
0,243000	0,541992	4,999847
0,244000	0,543671	4,999847
0,245000	0,550232	4,999847
0,246000	0,552216	4,999847
0,247000	0,554657	4,999847
0,248000	0,557251	4,999847
0,249000	0,549774	4,089966
0,250000	0,549316	4,518738
0,251000	0,563965	4,189301
0,252000	0,561829	4,578552
0,253000	0,558624	4,999847
0,254000	0,552368	4,999847
0,255000	0,558167	4,999847
0,256000	0,548401	4,999847
0,257000	0,547943	4,903564
0,258000	0,538940	4,393311
0,259000	0,544281	3,162231
0,260000	0,529785	2,843170
0,261000	0,537262	4,999847
0,262000	0,532074	4,999847
0,263000	0,538025	4,999847
0,264000	0,538635	4,999847
0,265000	0,537262	4,999847
0,266000	0,538635	4,999847
0,267000	0,537109	4,999847
0,268000	0,544586	4,820404
0,269000	0,527344	3,393097
0,270000	0,543976	3,997040
0,271000	0,520020	3,961487
0,272000	0,543671	4,999847
0,273000	0,534668	4,999847
0,274000	0,554810	4,999847
0,275000	0,551605	4,999847
0,276000	0,561066	4,999847
0,277000	0,560303	4,586487
0,278000	0,567780	4,999847
0,279000	0,577087	2,700958
0,280000	0,584106	3,244781
0,281000	0,587921	4,481964
0,282000	0,588837	4,999847
0,283000	0,593414	4,999847
0,284000	0,588989	4,999847
0,285000	0,596313	4,999847
0,286000	0,595398	4,999847
0,287000	0,602570	4,999847
0,288000	0,597687	4,888000
0,289000	0,602112	3,135223
0,290000	0,597382	4,681244
0,291000	0,599976	3,203278
0,292000	0,597839	3,939362
0,293000	0,595703	4,999847
0,294000	0,597076	4,999847
0,295000	0,595093	4,999847
0,296000	0,598450	4,999847
0,297000	0,594940	4,999847
0,298000	0,600891	4,333801
0,299000	0,589600	3,222198
0,300000	0,600128	2,612152
0,301000	0,578613	4,999847
0,302000	0,596771	4,999847
0,303000	0,573120	4,999847
0,304000	0,590057	4,999847
0,305000	0,575256	4,999847
0,306000	0,588531	4,999847
0,307000	0,586243	4,999847
0,308000	0,588837	4,549255
0,309000	0,593414	2,683258
0,310000	0,587463	4,999847
0,311000	0,598297	4,580688
0,312000	0,578918	4,056702
0,313000	0,598755	4,999847
0,314000	0,581665	4,999847
0,315000	0,607452	4,999847
0,316000	0,581055	4,999847
0,317000	0,608826	4,999847
0,318000	0,587311	4,999847
0,319000	0,606232	3,090820
0,320000	0,594482	3,404846
0,321000	0,604401	4,476776
0,322000	0,604248	4,999847
0,323000	0,603485	4,999847
0,324000	0,610657	4,999847
0,325000	0,602112	4,999847
0,326000	0,617218	4,999847
0,327000	0,602264	4,999847
0,328000	0,624237	4,999847
0,329000	0,601959	3,331299
0,330000	0,629578	4,618530
0,331000	0,600433	3,769684
0,332000	0,597534	3,985443
0,333000	0,591431	4,999847
0,334000	0,614014	4,999847
0,335000	0,606079	4,999847
0,336000	0,612335	4,999847
0,337000	0,615082	4,999847
0,338000	0,607300	3,878479
0,339000	0,622101	2,563324
0,340000	0,605774	2,609558
0,341000	0,629120	4,999847
0,342000	0,603790	4,999847
0,343000	0,636292	4,999847
0,344000	0,603180	4,999847
0,345000	0,643005	4,999847
0,346000	0,603790	4,999847
0,347000	0,635681	4,999847
0,348000	0,577698	4,999847
0,349000	0,597839	3,672791
0,350000	0,594025	4,212952
0,351000	0,597992	3,668976
0,352000	0,610504	4,999847
0,353000	0,597687	4,999847
0,354000	0,635223	4,999847
0,355000	0,609589	4,999847
0,356000	0,641632	4,999847
0,357000	0,601349	4,999847
0,358000	0,647125	4,337006
0,359000	0,599060	2,935181
0,360000	0,650635	2,529449
0,361000	0,610199	4,940796
0,362000	0,644531	4,999847
0,363000	0,620117	4,999847
0,364000	0,636292	4,999847
0,365000	0,631714	4,999847
0,366000	0,625763	4,999847
0,367000	0,637054	4,999847
0,368000	0,617065	4,868164
0,369000	0,647583	3,183289
0,370000	0,613861	4,326782
0,371000	0,656433	4,931641
0,372000	0,604248	4,547272
0,373000	0,662384	4,999847
0,374000	0,604553	4,999847
0,375000	0,660858	4,999847
0,376000	0,621490	4,999847
0,377000	0,653534	4,999847
0,378000	0,630951	4,445496
0,379000	0,644836	2,524261
0,380000	0,645752	3,134766
0,381000	0,640106	4,999847
0,382000	0,657959	4,999847
0,383000	0,630951	4,999847
0,384000	0,665741	4,999847
0,385000	0,626678	4,999847
0,386000	0,677643	4,999847
0,387000	0,619507	4,999847
0,388000	0,684662	4,631195
0,389000	0,622406	3,397064
0,390000	0,676117	3,637238
0,391000	0,634003	4,145660
0,392000	0,664215	4,727173
0,393000	0,650330	4,999847
0,394000	0,654297	4,999847
0,395000	0,659485	4,999847
0,396000	0,642395	4,999847
0,397000	0,668335	4,838104
0,398000	0,594025	4,774475
0,399000	0,642395	3,444977
0,400000	0,584869	3,072510
0,401000	0,651855	4,288177
0,402000	0,563660	4,999847
0,403000	0,649872	4,999847
0,404000	0,580292	4,999847
0,405000	0,633545	4,999847
0,406000	0,594330	4,999847
0,407000	0,624237	4,999847
0,408000	0,612335	4,402618
0,409000	0,606384	3,457489
0,410000	0,626526	4,772797
0,411000	0,597076	3,409729
0,412000	0,550079	4,999847
0,413000	0,516205	4,999847
0,414000	0,500488	4,999847
0,415000	0,648193	4,999847
0,416000	0,573730	4,999847
0,417000	0,659943	4,999847
0,418000	0,609741	4,689789
0,419000	0,650330	3,622589
0,420000	0,630951	3,148804
0,421000	0,634155	4,183960
0,422000	0,647430	4,999847
0,423000	0,623169	4,999847
0,424000	0,665741	4,999847
0,425000	0,615387	4,999847
0,426000	0,684814	4,999847
0,427000	0,612793	4,999847
0,428000	0,703278	4,999847
0,429000	0,605774	4,355927
0,430000	0,708618	4,999847
0,431000	0,632019	3,863983
0,432000	0,696411	4,999847
0,433000	0,658722	4,767914
0,434000	0,652771	4,999847
0,435000	0,641022	4,999847
0,436000	0,656891	4,999847
0,437000	0,686340	4,999847
0,438000	0,665436	4,177399
0,439000	0,711060	3,180389
0,440000	0,628052	2,954102
0,441000	0,692902	4,945068
0,442000	0,622406	4,999847
0,443000	0,706024	4,999847
0,444000	0,622711	4,999847
0,445000	0,707092	4,999847
0,446000	0,643158	4,999847
0,447000	0,694427	4,999847
0,448000	0,661926	4,999847
0,449000	0,679932	4,220428
0,450000	0,676880	2,307129
0,451000	0,662537	4,888306
0,452000	0,688477	4,999847
0,453000	0,653839	4,999847
0,454000	0,705872	4,999847
0,455000	0,641785	4,999847
0,456000	0,717163	4,999847
0,457000	0,630646	4,999847
0,458000	0,728455	4,606018
0,459000	0,644226	3,405609
0,460000	0,726318	3,149261
0,461000	0,664520	4,999847
0,462000	0,702209	4,999847
0,463000	0,674133	4,999847
0,464000	0,684357	4,999847
0,465000	0,692291	4,999847
0,466000	0,675507	4,999847
0,467000	0,710754	4,999847
0,468000	0,661163	4,999847
0,469000	0,722809	3,908997
0,470000	0,650177	2,937164
0,471000	0,735931	3,997803
0,472000	0,639648	4,999847
0,473000	0,747070	4,999847
0,474000	0,659485	4,999847
0,475000	0,732117	4,999847
0,476000	0,678558	4,999847
0,477000	0,717163	4,999847
0,478000	0,699158	4,183350
0,479000	0,705719	3,449097
0,480000	0,718994	3,931122
0,481000	0,691071	4,999847
0,482000	0,732574	4,999847
0,483000	0,678864	4,999847
0,484000	0,747375	4,999847
0,485000	0,670624	4,999847
0,486000	0,761261	4,999847
0,487000	0,665283	4,999847
0,488000	0,770264	4,999847
0,489000	0,685272	4,398193
0,490000	0,753021	4,622650
0,491000	0,704346	3,342438
0,492000	0,736237	4,999847
0,493000	0,722504	4,999847
0,494000	0,719147	4,999847
0,495000	0,739136	4,999847
0,496000	0,705566	4,999847
0,497000	0,754547	4,985352
0,498000	0,694427	4,522095
0,499000	0,769196	3,187866
0,500000	0,682678	2,641754
0,501000	0,782623	4,999847
0,502000	0,687256	4,999847
0,503000	0,788422	4,999847
0,504000	0,707245	4,999847
0,505000	0,768738	4,999847
0,506000	0,727081	4,999847
0,507000	0,751953	4,999847
0,508000	0,746155	4,999847
0,509000	0,738983	3,315887
0,510000	0,764008	4,426880
0,511000	0,726318	3,934326
0,512000	0,780487	4,996490
0,513000	0,714417	4,999847
0,514000	0,796204	4,999847
0,515000	0,702667	4,999847
0,516000	0,810394	4,999847
0,517000	0,717468	4,395599
0,518000	0,809479	4,418182
0,519000	0,735168	3,045959
0,520000	0,787811	3,388367
0,521000	0,752869	4,498291
0,522000	0,771637	4,999847
0,523000	0,770874	4,999847
0,524000	0,751343	4,999847
0,525000	0,785828	4,999847
0,526000	0,735779	4,999847
0,527000	0,801239	4,999847
0,528000	0,721588	4,999847
0,529000	0,816193	3,063202
0,530000	0,716248	4,306488
0,531000	0,830536	4,552612
0,532000	0,738068	4,999847
0,533000	0,823517	4,999847
0,534000	0,759735	4,999847
0,535000	0,806122	4,999847
0,536000	0,770111	4,999847
0,537000	0,735931	4,596558
0,538000	0,743866	4,366455
0,539000	0,715179	3,244629
0,540000	0,784760	2,349091
0,541000	0,740967	4,999847
0,542000	0,820160	4,999847
0,543000	0,732269	4,999847
0,544000	0,836487	4,999847
0,545000	0,735931	4,999847
0,546000	0,845337	4,999847
0,547000	0,762939	4,999847
0,548000	0,838928	4,999847
0,549000	0,785217	3,833771
0,550000	0,820770	4,876099
0,551000	0,804596	3,807220
0,552000	0,800323	4,999847
0,553000	0,820923	4,999847
0,554000	0,783234	4,999847
0,555000	0,835419	4,999847
0,556000	0,765533	4,999847
0,557000	0,845795	4,999847
0,558000	0,750275	4,691315
0,559000	0,853577	2,965240
0,560000	0,765381	3,194885
0,561000	0,853119	4,955292
0,562000	0,782776	4,999847
0,563000	0,835266	4,999847
0,564000	0,801086	4,999847
0,565000	0,815125	4,999847
0,566000	0,818329	4,999847
0,567000	0,791321	4,999847
0,568000	0,831299	4,999847
0,569000	0,778046	3,199158
0,570000	0,845490	3,584137
0,571000	0,761261	4,999847
0,572000	0,852814	4,999847
0,573000	0,747375	4,999847
0,574000	0,854797	4,999847
0,575000	0,768738	4,999847
0,576000	0,839691	4,999847
0,577000	0,789032	4,999847
0,578000	0,822144	4,128876
0,579000	0,810242	2,736816
0,580000	0,810242	3,333740
0,581000	0,709076	4,725037
0,582000	0,661163	4,762726
0,583000	0,639954	4,999847
0,584000	0,629730	4,999847
0,585000	0,625153	4,999847
0,586000	0,623169	4,999847
0,587000	0,622253	4,999847
0,588000	0,621490	4,797516
0,589000	0,621490	3,713684
0,590000	0,621185	4,911041
0,591000	0,621490	3,963470
0,592000	0,621185	4,999847
0,593000	0,620880	4,999847
0,594000	0,620880	4,999847
0,595000	0,621033	4,999847
0,596000	0,620728	4,999847
0,597000	0,620575	4,999847
0,598000	0,621033	4,999847
0,599000	0,620422	2,544403
0,600000	0,620422	3,673096
0,601000	0,619965	4,999847
0,602000	0,602722	4,999847
0,603000	0,565948	4,999847
0,604000	0,546417	4,999847
0,605000	0,528564	4,999847
0,606000	0,517731	4,999847
0,607000	0,514221	4,999847
0,608000	0,507355	4,999847
0,609000	0,505524	2,583771
0,610000	0,505524	3,115692
0,611000	0,505829	3,848877
0,612000	0,510559	4,643250
0,613000	0,514526	4,999847
0,614000	0,515137	4,999847
0,615000	0,522156	4,999847
0,616000	0,518951	4,999847
0,617000	0,522614	4,999847
0,618000	0,527039	4,698792
0,619000	0,527802	2,964172
0,620000	0,528259	3,171539
0,621000	0,528564	4,999847
0,622000	0,529480	4,999847
0,623000	0,527496	4,999847
0,624000	0,528412	4,999847
0,625000	0,527344	4,999847
0,626000	0,531921	4,999847
0,627000	0,532990	4,999847
0,628000	0,529022	4,999847
0,629000	0,533905	3,617401
0,630000	0,540009	4,798737
0,631000	0,538940	4,323120
0,632000	0,537872	4,450836
0,633000	0,537262	4,999847
0,634000	0,537262	4,999847
0,635000	0,538940	4,999847
0,636000	0,538177	4,999847
0,637000	0,538940	4,999847
0,638000	0,537262	4,999847
0,639000	0,495605	2,582703
0,640000	0,501251	4,515381
0,641000	0,524292	4,930878
0,642000	0,533295	4,999847
0,643000	0,538330	4,999847
0,644000	0,537109	4,999847
0,645000	0,540619	4,999847
0,646000	0,537567	4,999847
0,647000	0,539856	4,999847
0,648000	0,539246	4,999847
0,649000	0,538025	3,506012
0,650000	0,538483	3,049622
0,651000	0,536652	3,928375
0,652000	0,536957	4,197998
0,653000	0,534210	4,999847
0,654000	0,535431	4,999847
0,655000	0,530396	4,999847
0,656000	0,532379	4,999847
0,657000	0,536041	4,999847
0,658000	0,541382	3,842773
0,659000	0,538635	2,776031
0,660000	0,541992	3,340454
0,661000	0,543671	4,553223
0,662000	0,547638	4,999847
0,663000	0,547791	4,999847
0,664000	0,549316	4,999847
0,665000	0,548553	4,999847
0,666000	0,545654	4,999847
0,667000	0,546875	4,999847
0,668000	0,543060	4,683228
0,669000	0,544281	3,525085
0,670000	0,542450	3,745422
0,671000	0,541077	3,285828
0,672000	0,536041	4,844818
0,673000	0,544739	4,999847
0,674000	0,539551	4,999847
0,675000	0,543213	4,999847
0,676000	0,540161	4,999847
0,677000	0,541382	4,999847
0,678000	0,548553	4,518890
0,679000	0,542145	3,045044
0,680000	0,544128	2,761993
0,681000	0,542908	4,999847
0,682000	0,558472	4,999847
0,683000	0,557556	4,999847
0,684000	0,559540	4,999847
0,685000	0,560455	4,999847
0,686000	0,563354	4,999847
0,687000	0,562897	4,999847
0,688000	0,566254	4,999847
0,689000	0,571747	3,551483
0,690000	0,573883	3,203278
0,691000	0,571747	3,957977
0,692000	0,571442	4,999847
0,693000	0,571136	4,999847
0,694000	0,569153	4,999847
0,695000	0,569458	4,999847
0,696000	0,568695	4,999847
0,697000	0,567474	4,999847
0,698000	0,566864	4,301910
0,699000	0,554810	3,043060
0,700000	0,560913	2,956696
0,701000	0,558319	4,859467
0,702000	0,561676	4,999847
0,703000	0,563507	4,999847
0,704000	0,567017	4,999847
0,705000	0,565796	4,999847
0,706000	0,569153	4,999847
0,707000	0,570831	4,999847
0,708000	0,569916	4,592896
0,709000	0,570679	4,125824
0,710000	0,567322	4,589081
0,711000	0,569305	4,117889
0,712000	0,567169	4,702301
0,713000	0,573273	4,999847
0,714000	0,571442	4,999847
0,715000	0,579071	4,999847
0,716000	0,573883	4,999847
0,717000	0,577087	4,999847
0,718000	0,570984	3,857422
0,719000	0,578613	3,080139
0,720000	0,580139	3,499756
0,721000	0,580597	4,528046
0,722000	0,580750	4,999847
0,723000	0,579681	4,999847
0,724000	0,585480	4,999847
0,725000	0,580750	4,999847
0,726000	0,586548	4,999847
0,727000	0,578461	4,999847
0,728000	0,588226	4,999847
0,729000	0,568390	3,748627
0,730000	0,585175	4,742889
0,731000	0,571442	3,859711
0,732000	0,584106	4,999847
0,733000	0,578918	4,999847
0,734000	0,584869	4,999847
0,735000	0,582886	4,999847
0,736000	0,585175	4,999847
0,737000	0,590668	4,999847
0,738000	0,587921	4,180450
0,739000	0,597534	2,866669
0,740000	0,594177	3,404846
0,741000	0,581207	4,557953
0,742000	0,543518	4,999847
0,743000	0,579224	4,999847
0,744000	0,583038	4,999847
0,745000	0,604706	4,999847
0,746000	0,600433	4,999847
0,747000	0,610809	4,999847
0,748000	0,605164	4,999847
0,749000	0,612640	3,324280
0,750000	0,611267	4,999847
0,751000	0,609589	4,216919
0,752000	0,613403	4,999847
0,753000	0,605011	4,999847
0,754000	0,614929	4,999847
0,755000	0,601044	4,999847
0,756000	0,618591	4,999847
0,757000	0,604553	4,999847
0,758000	0,624542	4,114838
0,759000	0,604095	2,953339
0,760000	0,621490	2,634125
0,761000	0,608978	4,999847
0,762000	0,619202	4,999847
0,763000	0,611115	4,999847
0,764000	0,611725	4,999847
0,765000	0,612488	4,999847
0,766000	0,605774	4,999847
0,767000	0,618286	4,999847
0,768000	0,605927	4,999847
0,769000	0,624847	3,973389
0,770000	0,603333	4,495087
0,771000	0,629730	3,935852
0,772000	0,598602	4,999847
0,773000	0,633392	4,999847
0,774000	0,606842	4,999847
0,775000	0,630341	4,999847
0,776000	0,613098	4,999847
0,777000	0,625763	4,999847
0,778000	0,621796	3,944702
0,779000	0,593872	2,576294
0,780000	0,600433	3,683472
0,781000	0,592957	4,783325
0,782000	0,607605	4,999847
0,783000	0,590973	4,999847
0,784000	0,619659	4,999847
0,785000	0,593567	4,999847
0,786000	0,627289	4,999847
0,787000	0,613251	4,999847
0,788000	0,650177	4,347534
0,789000	0,621796	3,220062
0,790000	0,645447	4,999847
0,791000	0,631866	4,078674
0,792000	0,640564	4,999847
0,793000	0,639343	4,999847
0,794000	0,632172	4,999847
0,795000	0,642853	4,999847
0,796000	0,630188	4,999847
0,797000	0,652771	4,999847
0,798000	0,625763	4,483795
0,799000	0,658875	2,832184
0,800000	0,621338	3,064575
0,801000	0,664978	4,741821
0,802000	0,608673	4,999847
0,803000	0,652008	4,999847
0,804000	0,611115	4,999847
0,805000	0,637970	4,999847
0,806000	0,622253	4,999847
0,807000	0,630646	4,999847
0,808000	0,631866	4,999847
0,809000	0,623016	3,929749
0,810000	0,642395	3,569794
0,811000	0,614014	3,951111
0,812000	0,651550	4,470062
0,813000	0,605469	4,999847
0,814000	0,659943	4,999847
0,815000	0,604706	4,999847
0,816000	0,669556	4,999847
0,817000	0,614471	4,445038
0,818000	0,659790	4,958801
0,819000	0,620575	2,882996
0,820000	0,641327	2,888641
0,821000	0,624084	4,911652
0,822000	0,629425	4,999847
0,823000	0,641479	4,999847
0,824000	0,618134	4,999847
0,825000	0,650024	4,999847
0,826000	0,609131	4,999847
0,827000	0,661469	4,999847
0,828000	0,617828	4,771271
0,829000	0,681458	3,134918
0,830000	0,615082	3,123322
0,831000	0,684967	4,303436
0,832000	0,600433	4,935913
0,833000	0,643921	4,999847
0,834000	0,617218	4,999847
0,835000	0,637207	4,999847
0,836000	0,633850	4,999847
0,837000	0,634766	4,823303
0,838000	0,649109	4,772797
0,839000	0,627441	2,613831
0,840000	0,661316	3,427887
0,841000	0,619659	4,999847
0,842000	0,671082	4,999847
0,843000	0,613403	4,999847
0,844000	0,641785	4,999847
0,845000	0,614319	4,999847
0,846000	0,691528	4,999847
0,847000	0,646057	4,999847
0,848000	0,686340	4,999847
0,849000	0,617065	3,335114
0,850000	0,591278	3,854828
0,851000	0,579071	3,394928
0,852000	0,609283	4,999847
0,853000	0,673828	4,999847
0,854000	0,673370	4,999847
0,855000	0,688782	4,999847
0,856000	0,695496	4,999847
0,857000	0,683136	4,999847
0,858000	0,707855	4,478149
0,859000	0,675354	2,596283
0,860000	0,718079	3,692474
0,861000	0,671692	4,540253
0,862000	0,729675	4,999847
0,863000	0,656738	4,999847
0,864000	0,734406	4,999847
0,865000	0,669708	4,999847
0,866000	0,725403	4,999847
0,867000	0,689850	4,999847
0,868000	0,716858	4,999847
0,869000	0,704651	3,312988
0,870000	0,708923	4,999847
0,871000	0,718384	4,305267
0,872000	0,700531	4,999847
0,873000	0,730286	4,999847
0,874000	0,689697	4,999847
0,875000	0,739899	4,999847
0,876000	0,682526	4,999847
0,877000	0,750427	4,999847
0,878000	0,680389	4,040222
0,879000	0,758972	2,233276
0,880000	0,697632	3,473663
0,881000	0,747375	4,999847
0,882000	0,678101	4,999847
0,883000	0,696716	4,999847
0,884000	0,688782	4,999847
0,885000	0,683746	4,999847
0,886000	0,700836	4,999847
0,887000	0,676270	4,999847
0,888000	0,712128	4,999847
0,889000	0,650330	3,179169
0,890000	0,714417	3,864136
0,891000	0,641785	4,056549
0,892000	0,725403	4,730988
0,893000	0,638123	4,999847
0,894000	0,719147	4,999847
0,895000	0,661163	4,999847
0,896000	0,704041	4,999847
0,897000	0,674896	4,999847
0,898000	0,686340	4,051361
0,899000	0,685425	2,777557
0,900000	0,672455	3,018951
0,901000	0,701904	4,732513
0,902000	0,664062	4,999847
0,903000	0,718384	4,999847
0,904000	0,653534	4,999847
0,905000	0,729370	4,999847
0,906000	0,639648	4,999847
0,907000	0,739441	4,999847
0,908000	0,646210	4,999847
0,909000	0,718536	3,463593
0,910000	0,658112	3,683472
0,911000	0,698700	3,862610
0,912000	0,681305	4,910889
0,913000	0,693512	4,999847
0,914000	0,706787	4,999847
0,915000	0,687408	4,999847
0,916000	0,724335	4,999847
0,917000	0,675812	4,999847
0,918000	0,740814	4,716492
0,919000	0,672150	2,606659
0,920000	0,756683	4,550018
0,921000	0,664673	4,999847
0,922000	0,768280	4,999847
0,923000	0,682831	4,999847
0,924000	0,753937	4,999847
0,925000	0,703278	4,999847
0,926000	0,737305	4,999847
0,927000	0,720367	4,999847
0,928000	0,718536	4,513245
0,929000	0,734100	3,297882
0,930000	0,702667	4,437256
0,931000	0,748291	4,102173
0,932000	0,691376	4,999847
0,933000	0,763245	4,999847
0,934000	0,680237	4,999847
0,935000	0,776520	4,999847
0,936000	0,682526	4,999847
0,937000	0,787811	4,999847
0,938000	0,708466	4,721222
0,939000	0,777283	2,540588
0,940000	0,729523	3,111877
0,941000	0,761108	4,400177
0,942000	0,748138	4,999847
0,943000	0,747223	4,999847
0,944000	0,764465	4,999847
0,945000	0,731201	4,999847
0,946000	0,746918	4,999847
0,947000	0,672150	4,999847
0,948000	0,770111	4,999847
0,949000	0,692596	3,601837
0,950000	0,799713	4,999847
0,951000	0,710754	3,497009
0,952000	0,807343	4,999847
0,953000	0,728607	4,999847
0,954000	0,790558	4,999847
0,955000	0,750427	4,999847
0,956000	0,776978	4,999847
0,957000	0,768585	4,999847
0,958000	0,758820	4,524994
0,959000	0,784760	2,897644
0,960000	0,747528	3,913727
0,961000	0,802307	4,160004
0,962000	0,729828	4,999847
0,963000	0,814667	4,999847
0,964000	0,714264	4,999847
0,965000	0,827179	4,999847
0,966000	0,738068	4,999847
0,967000	0,820160	4,999847
0,968000	0,753021	4,999847
0,969000	0,810242	3,432617
0,970000	0,776062	4,923401
0,971000	0,788269	2,751007
0,972000	0,791168	4,999847
0,973000	0,765839	4,999847
0,974000	0,804596	4,999847
0,975000	0,747681	4,999847
0,976000	0,818634	4,999847
0,977000	0,736237	4,999847
0,978000	0,833588	4,067535
0,979000	0,736084	3,041077
0,980000	0,844116	3,831940
0,981000	0,756073	4,282990
0,982000	0,835571	4,999847
0,983000	0,777130	4,999847
0,984000	0,817719	4,999847
0,985000	0,797424	4,999847
0,986000	0,808868	4,999847
0,987000	0,820618	4,999847
0,988000	0,793152	4,999847
0,989000	0,836487	3,704987
0,990000	0,778809	3,825378
0,991000	0,847473	3,169403
0,992000	0,763855	4,999847
0,993000	0,854492	4,999847
0,994000	0,770111	4,999847
0,995000	0,856018	4,999847
0,996000	0,784302	4,999847
0,997000	0,850372	4,684601
0,998000	0,805206	3,582458
0,999000	0,832214	2,946930

