LabVIEW Measurement	
Writer_Version	2
Reader_Version	2
Separator	Tab
Decimal_Separator	,
Multi_Headings	Yes
X_Columns	One
Time_Pref	Absolute
Operator	d.nicolai
Date	2023/11/09
Time	16:04:05,6565121999996605588
***End_of_Header***	
	
Channels	2		
Samples	1000	1000	
Date	2023/11/09	2023/11/09	
Time	16:04:32,2735130999998588735	16:04:32,2735130999998588735	
Y_Unit_Label	Volts	Volts	
X_Dimension	Time	Time	
X0	0,0000000000000000E+0	0,0000000000000000E+0	
Delta_X	0,001000	0,001000	
***End_of_Header***			
X_Value	powebox	triggerbox	Comment
0,000000	0,592957	1,056976
0,001000	0,599670	3,973846
0,002000	0,604858	4,999847
0,003000	0,608978	4,999847
0,004000	0,604858	4,999847
0,005000	0,606384	4,999847
0,006000	0,604095	4,999847
0,007000	0,597992	4,999847
0,008000	0,594635	4,999847
0,009000	0,596313	4,043121
0,010000	0,595245	4,105072
0,011000	0,592346	4,999847
0,012000	0,590668	3,565063
0,013000	0,599213	4,999847
0,014000	0,608215	4,999847
0,015000	0,612640	4,999847
0,016000	0,609436	4,999847
0,017000	0,605927	4,999847
0,018000	0,604553	4,366760
0,019000	0,604248	4,305725
0,020000	0,606689	1,592102
0,021000	0,602722	3,525391
0,022000	0,603638	4,809875
0,023000	0,601044	4,999847
0,024000	0,597839	4,999847
0,025000	0,590210	4,999847
0,026000	0,589447	4,999847
0,027000	0,587769	4,999847
0,028000	0,595398	4,999847
0,029000	0,583344	3,841400
0,030000	0,579529	2,258148
0,031000	0,576477	3,912201
0,032000	0,580139	3,730927
0,033000	0,582581	4,999847
0,034000	0,585632	4,999847
0,035000	0,595856	4,999847
0,036000	0,603943	4,999847
0,037000	0,603790	4,999847
0,038000	0,608826	4,759979
0,039000	0,615540	3,581085
0,040000	0,614166	0,895233
0,041000	0,619354	4,999847
0,042000	0,618134	4,999847
0,043000	0,618744	4,999847
0,044000	0,614777	4,999847
0,045000	0,616608	4,999847
0,046000	0,613251	4,999847
0,047000	0,610809	4,999847
0,048000	0,608521	4,999847
0,049000	0,610809	3,704071
0,050000	0,610199	4,427185
0,051000	0,610809	4,999847
0,052000	0,612335	4,144135
0,053000	0,608521	4,999847
0,054000	0,610046	4,999847
0,055000	0,607605	4,999847
0,056000	0,612335	4,999847
0,057000	0,605469	4,999847
0,058000	0,608063	4,905090
0,059000	0,602570	3,548126
0,060000	0,599213	3,047180
0,061000	0,598755	4,999847
0,062000	0,566559	4,497375
0,063000	0,572052	4,999847
0,064000	0,585480	4,999847
0,065000	0,598297	4,999847
0,066000	0,598907	4,999847
0,067000	0,601196	4,999847
0,068000	0,595093	4,803619
0,069000	0,603180	4,000549
0,070000	0,593872	2,831879
0,071000	0,598145	3,897552
0,072000	0,597992	3,585510
0,073000	0,602722	4,999847
0,074000	0,599670	4,999847
0,075000	0,601501	4,999847
0,076000	0,600128	4,999847
0,077000	0,589752	4,999847
0,078000	0,602875	4,561157
0,079000	0,601044	3,422089
0,080000	0,603638	2,619171
0,081000	0,604248	4,976959
0,082000	0,605011	4,670105
0,083000	0,600586	4,999847
0,084000	0,601959	4,999847
0,085000	0,606232	4,999847
0,086000	0,619202	4,999847
0,087000	0,614929	4,999847
0,088000	0,617065	4,999847
0,089000	0,616760	4,457550
0,090000	0,615540	2,672272
0,091000	0,612030	4,999847
0,092000	0,609894	3,686218
0,093000	0,616913	4,999847
0,094000	0,616302	4,999847
0,095000	0,624847	4,999847
0,096000	0,621490	4,999847
0,097000	0,628967	4,999847
0,098000	0,624542	4,999847
0,099000	0,634613	3,047333
0,100000	0,627594	2,670135
0,101000	0,630951	3,153381
0,102000	0,619049	4,331970
0,103000	0,615997	4,999847
0,104000	0,611420	4,999847
0,105000	0,613098	4,999847
0,106000	0,609436	4,999847
0,107000	0,606995	4,999847
0,108000	0,611725	4,999847
0,109000	0,609131	3,296509
0,110000	0,611877	2,812195
0,111000	0,601654	4,644318
0,112000	0,605774	3,890686
0,113000	0,593567	4,999847
0,114000	0,604248	4,999847
0,115000	0,600128	4,999847
0,116000	0,615387	4,999847
0,117000	0,611267	4,999847
0,118000	0,611420	4,650726
0,119000	0,613556	3,559570
0,120000	0,614319	4,291077
0,121000	0,611572	3,807068
0,122000	0,602570	4,629364
0,123000	0,606384	4,999847
0,124000	0,601959	4,999847
0,125000	0,614471	4,999847
0,126000	0,605469	4,999847
0,127000	0,621338	4,999847
0,128000	0,610657	4,999847
0,129000	0,621796	3,774567
0,130000	0,614014	3,055115
0,131000	0,627441	3,570557
0,132000	0,620880	4,062347
0,133000	0,622864	4,999847
0,134000	0,620575	4,999847
0,135000	0,621033	4,999847
0,136000	0,621490	4,999847
0,137000	0,617981	4,999847
0,138000	0,630951	4,390106
0,139000	0,619965	3,795166
0,140000	0,634308	4,009552
0,141000	0,618286	4,439240
0,142000	0,630798	4,710846
0,143000	0,620880	4,999847
0,144000	0,632782	4,999847
0,145000	0,623016	4,999847
0,146000	0,635071	4,999847
0,147000	0,623169	4,999847
0,148000	0,619659	4,999847
0,149000	0,616913	4,133453
0,150000	0,617218	3,214569
0,151000	0,626373	4,694824
0,152000	0,625305	2,902069
0,153000	0,634460	4,999847
0,154000	0,626373	4,999847
0,155000	0,644379	4,999847
0,156000	0,615234	4,999847
0,157000	0,634613	4,999847
0,158000	0,625000	4,225616
0,159000	0,641479	3,547058
0,160000	0,627441	3,184967
0,161000	0,630951	3,606567
0,162000	0,615692	4,999847
0,163000	0,615692	4,999847
0,164000	0,621796	4,999847
0,165000	0,598297	4,999847
0,166000	0,630035	4,999847
0,167000	0,627441	4,999847
0,168000	0,650177	4,952545
0,169000	0,634918	4,863434
0,170000	0,650787	4,999847
0,171000	0,623627	3,606873
0,172000	0,643158	3,651886
0,173000	0,618439	4,999847
0,174000	0,634155	4,999847
0,175000	0,623322	4,999847
0,176000	0,631714	4,999847
0,177000	0,630188	4,999847
0,178000	0,628204	4,138641
0,179000	0,634613	3,858185
0,180000	0,623779	3,753510
0,181000	0,639648	3,890991
0,182000	0,609589	4,999847
0,183000	0,638885	4,999847
0,184000	0,608978	4,999847
0,185000	0,645752	4,999847
0,186000	0,611725	4,999847
0,187000	0,644684	4,999847
0,188000	0,622406	4,999847
0,189000	0,637970	4,986267
0,190000	0,628357	3,103638
0,191000	0,636444	4,137878
0,192000	0,639496	4,739532
0,193000	0,634308	4,999847
0,194000	0,646973	4,999847
0,195000	0,634918	4,999847
0,196000	0,656433	4,999847
0,197000	0,630341	4,999847
0,198000	0,661163	4,356689
0,199000	0,622253	3,854065
0,200000	0,665283	2,278442
0,201000	0,626526	4,874573
0,202000	0,657806	4,999847
0,203000	0,635529	4,999847
0,204000	0,655212	4,999847
0,205000	0,649414	4,999847
0,206000	0,649719	4,999847
0,207000	0,655975	4,999847
0,208000	0,647278	4,512482
0,209000	0,662842	4,999847
0,210000	0,644073	2,670898
0,211000	0,671539	3,589020
0,212000	0,633087	3,689270
0,213000	0,675354	4,999847
0,214000	0,628204	4,999847
0,215000	0,675354	4,999847
0,216000	0,629120	4,999847
0,217000	0,665588	4,999847
0,218000	0,645447	4,660187
0,219000	0,658417	4,091949
0,220000	0,653381	4,721222
0,221000	0,651550	4,493256
0,222000	0,663300	4,999847
0,223000	0,641785	4,999847
0,224000	0,666809	4,999847
0,225000	0,618286	4,999847
0,226000	0,669250	4,999847
0,227000	0,614777	4,999847
0,228000	0,678406	4,633179
0,229000	0,616913	4,096527
0,230000	0,677032	3,457336
0,231000	0,631866	4,332581
0,232000	0,666962	4,933319
0,233000	0,645752	4,999847
0,234000	0,655823	4,999847
0,235000	0,600281	4,999847
0,236000	0,574799	4,999847
0,237000	0,553894	4,999847
0,238000	0,633087	4,999847
0,239000	0,602722	3,053894
0,240000	0,666809	3,602448
0,241000	0,611725	3,196106
0,242000	0,686035	4,999847
0,243000	0,617828	4,999847
0,244000	0,686493	4,999847
0,245000	0,634308	4,999847
0,246000	0,672455	4,999847
0,247000	0,642700	4,999847
0,248000	0,648499	4,815216
0,249000	0,647125	4,494629
0,250000	0,631714	3,782654
0,251000	0,658417	3,780060
0,252000	0,623016	3,264008
0,253000	0,675507	4,999847
0,254000	0,614929	4,999847
0,255000	0,687256	4,999847
0,256000	0,613403	4,999847
0,257000	0,701447	4,999847
0,258000	0,623322	4,101257
0,259000	0,690460	3,867340
0,260000	0,640717	4,609222
0,261000	0,675659	3,692474
0,262000	0,655975	4,423981
0,263000	0,662231	4,999847
0,264000	0,671387	4,999847
0,265000	0,653992	4,999847
0,266000	0,687866	4,999847
0,267000	0,605774	4,999847
0,268000	0,676880	4,550018
0,269000	0,617371	4,999847
0,270000	0,703583	2,362671
0,271000	0,615997	4,256897
0,272000	0,716553	3,945160
0,273000	0,638123	4,999847
0,274000	0,703583	4,999847
0,275000	0,657654	4,999847
0,276000	0,686340	4,999847
0,277000	0,672760	4,999847
0,278000	0,672607	4,999847
0,279000	0,690002	4,083099
0,280000	0,660858	3,228302
0,281000	0,704956	4,915619
0,282000	0,651703	4,819946
0,283000	0,720520	4,999847
0,284000	0,644379	4,999847
0,285000	0,733032	4,999847
0,286000	0,637207	4,999847
0,287000	0,732574	4,999847
0,288000	0,656891	4,575348
0,289000	0,711670	4,999847
0,290000	0,672607	2,651825
0,291000	0,690918	3,392487
0,292000	0,684967	3,782349
0,293000	0,677490	4,999847
0,294000	0,704346	4,999847
0,295000	0,666351	4,999847
0,296000	0,720673	4,999847
0,297000	0,652618	4,999847
0,298000	0,732117	4,284668
0,299000	0,643463	3,051910
0,300000	0,745697	4,210815
0,301000	0,649719	2,951202
0,302000	0,740662	4,581146
0,303000	0,669861	4,999847
0,304000	0,721588	4,999847
0,305000	0,690765	4,999847
0,306000	0,704193	4,999847
0,307000	0,707397	4,999847
0,308000	0,691376	4,622955
0,309000	0,726166	4,703522
0,310000	0,679779	3,728333
0,311000	0,741882	4,119415
0,312000	0,666962	3,850250
0,313000	0,755005	4,999847
0,314000	0,654449	4,999847
0,315000	0,759125	4,999847
0,316000	0,663605	4,999847
0,317000	0,751190	4,999847
0,318000	0,691376	4,305878
0,319000	0,732880	3,429413
0,320000	0,711212	3,131561
0,321000	0,719757	4,942627
0,322000	0,731659	4,999847
0,323000	0,706787	4,999847
0,324000	0,748444	4,999847
0,325000	0,693817	4,999847
0,326000	0,763092	4,999847
0,327000	0,682220	4,999847
0,328000	0,777435	4,999847
0,329000	0,677032	3,803406
0,330000	0,790710	2,907715
0,331000	0,701447	4,659271
0,332000	0,778961	4,125214
0,333000	0,722656	4,310760
0,334000	0,757294	4,999847
0,335000	0,739594	4,999847
0,336000	0,733795	4,999847
0,337000	0,754547	4,999847
0,338000	0,717621	4,999847
0,339000	0,770111	2,896423
0,340000	0,709991	3,616333
0,341000	0,787964	3,783722
0,342000	0,695953	3,750458
0,343000	0,802307	4,999847
0,344000	0,707855	4,999847
0,345000	0,818024	4,999847
0,346000	0,732880	4,999847
0,347000	0,808563	4,999847
0,348000	0,756073	4,844360
0,349000	0,793152	4,899597
0,350000	0,776062	4,481506
0,351000	0,776215	3,372192
0,352000	0,792389	4,568787
0,353000	0,747528	4,999847
0,354000	0,802155	4,999847
0,355000	0,731354	4,999847
0,356000	0,816193	4,999847
0,357000	0,719147	4,999847
0,358000	0,830841	4,999847
0,359000	0,732422	3,386230
0,360000	0,830383	2,792816
0,361000	0,755310	4,843597
0,362000	0,811310	4,999847
0,363000	0,774078	4,999847
0,364000	0,794678	4,999847
0,365000	0,793762	4,999847
0,366000	0,779266	4,999847
0,367000	0,811615	4,999847
0,368000	0,761261	4,999847
0,369000	0,803986	4,438782
0,370000	0,702667	4,007874
0,371000	0,807648	3,567047
0,372000	0,718689	4,860077
0,373000	0,842896	4,999847
0,374000	0,754089	4,999847
0,375000	0,832520	4,999847
0,376000	0,774078	4,999847
0,377000	0,815887	4,999847
0,378000	0,794830	4,999847
0,379000	0,800781	3,728485
0,380000	0,814209	3,694305
0,381000	0,782928	3,639221
0,382000	0,830231	4,407501
0,383000	0,767670	4,999847
0,384000	0,843964	4,999847
0,385000	0,755615	4,999847
0,386000	0,854187	4,999847
0,387000	0,754395	4,999847
0,388000	0,854797	4,999847
0,389000	0,773163	4,092255
0,390000	0,836334	3,202515
0,391000	0,793457	4,922180
0,392000	0,817566	3,678436
0,393000	0,812836	4,999847
0,394000	0,800171	4,999847
0,395000	0,829926	4,999847
0,396000	0,787659	4,999847
0,397000	0,846558	4,999847
0,398000	0,772705	4,999847
0,399000	0,855560	3,970184
0,400000	0,760040	2,946167
0,401000	0,860138	4,999847
0,402000	0,772095	4,937134
0,403000	0,858154	4,999847
0,404000	0,737610	4,999847
0,405000	0,675507	4,999847
0,406000	0,646667	4,999847
0,407000	0,633392	4,999847
0,408000	0,627289	4,830627
0,409000	0,624390	4,142609
0,410000	0,622864	2,899475
0,411000	0,622559	4,722290
0,412000	0,622253	3,802490
0,413000	0,621796	4,731750
0,414000	0,621490	4,999847
0,415000	0,621643	4,999847
0,416000	0,621490	4,999847
0,417000	0,621643	4,999847
0,418000	0,621948	4,999847
0,419000	0,622406	2,830658
0,420000	0,622559	4,281464
0,421000	0,622406	3,193817
0,422000	0,622101	4,937134
0,423000	0,621948	4,999847
0,424000	0,621948	4,999847
0,425000	0,620422	4,999847
0,426000	0,576630	4,999847
0,427000	0,564880	4,999847
0,428000	0,558929	4,999847
0,429000	0,556793	3,623810
0,430000	0,544434	2,947235
0,431000	0,549316	3,660278
0,432000	0,544281	2,897797
0,433000	0,538788	4,999847
0,434000	0,534515	4,999847
0,435000	0,540009	4,999847
0,436000	0,547180	4,999847
0,437000	0,546570	4,999847
0,438000	0,547638	4,999847
0,439000	0,549316	3,828430
0,440000	0,552673	2,428894
0,441000	0,550537	4,312744
0,442000	0,550842	4,925385
0,443000	0,552368	4,999847
0,444000	0,550079	4,999847
0,445000	0,548706	4,999847
0,446000	0,548553	4,999847
0,447000	0,547638	4,999847
0,448000	0,546265	4,868927
0,449000	0,546265	4,572296
0,450000	0,548859	4,317474
0,451000	0,550995	3,956604
0,452000	0,555267	4,012909
0,453000	0,556030	4,999847
0,454000	0,549927	4,999847
0,455000	0,555573	4,999847
0,456000	0,556641	4,999847
0,457000	0,558472	4,999847
0,458000	0,556030	3,930969
0,459000	0,552673	2,858276
0,460000	0,551453	3,714294
0,461000	0,557556	2,572174
0,462000	0,560913	4,999847
0,463000	0,558319	4,999847
0,464000	0,558472	4,999847
0,465000	0,553131	4,999847
0,466000	0,547791	4,999847
0,467000	0,548248	4,999847
0,468000	0,553741	4,999847
0,469000	0,554810	3,821564
0,470000	0,556488	2,937469
0,471000	0,553894	3,639679
0,472000	0,529175	4,074707
0,473000	0,545044	4,999847
0,474000	0,550690	4,999847
0,475000	0,550995	4,999847
0,476000	0,550537	4,999847
0,477000	0,557861	4,999847
0,478000	0,562134	4,905243
0,479000	0,570221	3,450470
0,480000	0,567932	3,339844
0,481000	0,574036	4,999847
0,482000	0,581207	4,999847
0,483000	0,581360	4,999847
0,484000	0,584564	4,999847
0,485000	0,581512	4,999847
0,486000	0,578918	4,999847
0,487000	0,582275	4,999847
0,488000	0,588989	4,999847
0,489000	0,587921	4,591370
0,490000	0,588074	3,749390
0,491000	0,588226	4,088135
0,492000	0,589294	4,111023
0,493000	0,583344	4,999847
0,494000	0,586243	4,999847
0,495000	0,585785	4,999847
0,496000	0,584564	4,999847
0,497000	0,584564	4,999847
0,498000	0,581818	4,878387
0,499000	0,577393	3,813782
0,500000	0,576324	3,831635
0,501000	0,575256	3,899689
0,502000	0,573883	4,534912
0,503000	0,570526	4,999847
0,504000	0,563507	4,999847
0,505000	0,550232	4,999847
0,506000	0,553741	4,999847
0,507000	0,555878	4,999847
0,508000	0,554657	3,949127
0,509000	0,559235	3,767853
0,510000	0,557404	4,089661
0,511000	0,561066	3,155518
0,512000	0,561371	4,302521
0,513000	0,564728	4,999847
0,514000	0,566559	4,999847
0,515000	0,565491	4,999847
0,516000	0,559692	4,999847
0,517000	0,554962	4,999847
0,518000	0,555878	4,533539
0,519000	0,552216	3,648987
0,520000	0,553131	2,846832
0,521000	0,558319	4,591370
0,522000	0,535583	4,999847
0,523000	0,551453	4,999847
0,524000	0,562897	4,999847
0,525000	0,568085	4,999847
0,526000	0,568085	4,999847
0,527000	0,556335	4,999847
0,528000	0,552368	4,326935
0,529000	0,554657	3,738556
0,530000	0,559692	4,572601
0,531000	0,578156	3,034668
0,532000	0,586700	4,640656
0,533000	0,594177	4,999847
0,534000	0,590057	4,999847
0,535000	0,587158	4,999847
0,536000	0,589294	4,999847
0,537000	0,586548	4,999847
0,538000	0,587769	4,832153
0,539000	0,588684	3,898621
0,540000	0,597229	2,787476
0,541000	0,590363	3,791199
0,542000	0,596313	4,999847
0,543000	0,591583	4,999847
0,544000	0,597839	4,999847
0,545000	0,593414	4,999847
0,546000	0,595093	4,999847
0,547000	0,590057	4,999847
0,548000	0,594330	4,688568
0,549000	0,595398	3,586731
0,550000	0,598755	3,613281
0,551000	0,602264	2,695618
0,552000	0,599060	4,196625
0,553000	0,601044	4,707031
0,554000	0,599213	4,999847
0,555000	0,603943	4,999847
0,556000	0,592346	4,999847
0,557000	0,599365	4,999847
0,558000	0,593262	4,999847
0,559000	0,600739	4,314270
0,560000	0,597382	2,577820
0,561000	0,603485	4,979706
0,562000	0,602417	4,567413
0,563000	0,600891	4,999847
0,564000	0,603790	4,999847
0,565000	0,599060	4,999847
0,566000	0,602112	4,999847
0,567000	0,595093	4,999847
0,568000	0,601807	4,999847
0,569000	0,592804	3,716583
0,570000	0,602875	2,035217
0,571000	0,586548	4,909363
0,572000	0,600586	3,658295
0,573000	0,594025	4,999847
0,574000	0,568695	4,999847
0,575000	0,547485	4,999847
0,576000	0,577850	4,999847
0,577000	0,586700	4,999847
0,578000	0,592194	4,999847
0,579000	0,597839	4,426117
0,580000	0,590820	2,714844
0,581000	0,599823	4,123535
0,582000	0,594330	4,397430
0,583000	0,609894	4,999847
0,584000	0,606232	4,999847
0,585000	0,628052	4,999847
0,586000	0,606384	4,999847
0,587000	0,628815	4,999847
0,588000	0,615234	4,999847
0,589000	0,626221	4,911652
0,590000	0,618134	3,044128
0,591000	0,624542	4,179382
0,592000	0,626526	3,216095
0,593000	0,623779	4,999847
0,594000	0,631866	4,999847
0,595000	0,583801	4,999847
0,596000	0,609589	4,999847
0,597000	0,610046	4,999847
0,598000	0,638123	4,187469
0,599000	0,618744	3,859711
0,600000	0,647430	2,971954
0,601000	0,629120	4,904633
0,602000	0,648193	4,999847
0,603000	0,638580	4,999847
0,604000	0,646820	4,999847
0,605000	0,641327	4,999847
0,606000	0,640259	4,999847
0,607000	0,643616	4,999847
0,608000	0,642700	4,999847
0,609000	0,656128	4,752655
0,610000	0,644989	2,538605
0,611000	0,661163	4,485168
0,612000	0,636749	4,077759
0,613000	0,662689	4,999847
0,614000	0,638885	4,999847
0,615000	0,668793	4,999847
0,616000	0,644684	4,999847
0,617000	0,663605	4,999847
0,618000	0,641785	4,999847
0,619000	0,657959	3,801575
0,620000	0,656738	3,392029
0,621000	0,658112	4,036255
0,622000	0,664673	4,532776
0,623000	0,653534	4,999847
0,624000	0,668488	4,999847
0,625000	0,652771	4,999847
0,626000	0,677032	4,999847
0,627000	0,651703	4,999847
0,628000	0,683136	4,999847
0,629000	0,652618	4,134979
0,630000	0,684967	4,265747
0,631000	0,658722	2,744904
0,632000	0,679321	3,323975
0,633000	0,665436	4,999847
0,634000	0,671539	4,999847
0,635000	0,669861	4,999847
0,636000	0,669403	4,999847
0,637000	0,680237	4,999847
0,638000	0,668945	4,438019
0,639000	0,689850	2,926636
0,640000	0,667267	3,491821
0,641000	0,696716	3,305206
0,642000	0,660858	4,972992
0,643000	0,700073	4,999847
0,644000	0,660095	4,999847
0,645000	0,696564	4,999847
0,646000	0,667419	4,999847
0,647000	0,689087	4,999847
0,648000	0,681458	4,999847
0,649000	0,685883	3,892670
0,650000	0,686493	3,313141
0,651000	0,678406	4,488220
0,652000	0,694580	3,594360
0,653000	0,670929	4,999847
0,654000	0,700378	4,999847
0,655000	0,662537	4,999847
0,656000	0,705261	4,999847
0,657000	0,645905	4,999847
0,658000	0,705566	4,790497
0,659000	0,652466	2,753448
0,660000	0,694427	3,360748
0,661000	0,664368	4,563141
0,662000	0,684052	4,229431
0,663000	0,673828	4,999847
0,664000	0,678711	4,999847
0,665000	0,682831	4,999847
0,666000	0,657959	4,999847
0,667000	0,675507	4,999847
0,668000	0,634155	4,999847
0,669000	0,658875	4,084930
0,670000	0,607910	4,737701
0,671000	0,674591	3,176575
0,672000	0,607758	2,802277
0,673000	0,574036	4,999847
0,674000	0,554047	4,999847
0,675000	0,587769	4,999847
0,676000	0,624695	4,999847
0,677000	0,604401	4,999847
0,678000	0,619659	4,511566
0,679000	0,654449	2,910614
0,680000	0,630646	3,063965
0,681000	0,672302	4,840393
0,682000	0,617981	4,546051
0,683000	0,682526	4,999847
0,684000	0,615387	4,999847
0,685000	0,694580	4,999847
0,686000	0,619049	4,999847
0,687000	0,687103	4,999847
0,688000	0,634613	4,999847
0,689000	0,673218	3,900757
0,690000	0,651245	4,046173
0,691000	0,662842	3,503418
0,692000	0,666046	4,563599
0,693000	0,650635	4,999847
0,694000	0,679169	4,999847
0,695000	0,640259	4,999847
0,696000	0,691223	4,999847
0,697000	0,632477	4,999847
0,698000	0,703430	4,999847
0,699000	0,625153	3,836365
0,700000	0,714417	3,971863
0,701000	0,637360	3,560028
0,702000	0,702515	4,999847
0,703000	0,655975	4,999847
0,704000	0,690918	4,999847
0,705000	0,676117	4,999847
0,706000	0,679321	4,999847
0,707000	0,690002	4,999847
0,708000	0,668640	4,999847
0,709000	0,702515	4,093933
0,710000	0,657349	4,026947
0,711000	0,715942	3,745422
0,712000	0,639191	3,683929
0,713000	0,720520	4,999847
0,714000	0,625458	4,999847
0,715000	0,724792	4,999847
0,716000	0,650177	4,999847
0,717000	0,714569	4,999847
0,718000	0,674286	4,999847
0,719000	0,699768	4,004669
0,720000	0,689240	3,287811
0,721000	0,674438	4,909668
0,722000	0,695953	4,999847
0,723000	0,660553	4,999847
0,724000	0,710297	4,999847
0,725000	0,651398	4,999847
0,726000	0,727081	4,999847
0,727000	0,640106	4,999847
0,728000	0,739288	4,636230
0,729000	0,640717	3,692780
0,730000	0,736542	2,553864
0,731000	0,663757	3,936310
0,732000	0,723267	3,634949
0,733000	0,690308	4,999847
0,734000	0,745392	4,999847
0,735000	0,745239	4,999847
0,736000	0,728760	4,999847
0,737000	0,761871	4,999847
0,738000	0,712128	4,107971
0,739000	0,777130	3,568573
0,740000	0,693970	3,468323
0,741000	0,789642	3,495483
0,742000	0,687103	4,999847
0,743000	0,805206	4,999847
0,744000	0,698395	4,999847
0,745000	0,791321	4,999847
0,746000	0,726318	4,999847
0,747000	0,773773	4,999847
0,748000	0,746918	4,999847
0,749000	0,756226	4,999847
0,750000	0,766754	2,737885
0,751000	0,741119	3,726349
0,752000	0,783081	4,594116
0,753000	0,721130	4,869385
0,754000	0,797272	4,999847
0,755000	0,715027	4,999847
0,756000	0,815735	4,999847
0,757000	0,707550	4,999847
0,758000	0,830536	4,601746
0,759000	0,731354	3,625946
0,760000	0,814667	2,272797
0,761000	0,753479	4,065704
0,762000	0,791626	4,999847
0,763000	0,772552	4,999847
0,764000	0,778656	4,999847
0,765000	0,795135	4,999847
0,766000	0,766296	4,999847
0,767000	0,814209	4,999847
0,768000	0,755005	4,637146
0,769000	0,832214	4,982605
0,770000	0,742950	3,652649
0,771000	0,846710	3,425903
0,772000	0,740051	4,223785
0,773000	0,860138	4,999847
0,774000	0,765076	4,999847
0,775000	0,841522	4,999847
0,776000	0,786591	4,999847
0,777000	0,823212	4,999847
0,778000	0,806732	4,999847
0,779000	0,771027	4,138794
0,780000	0,809479	4,542389
0,781000	0,780792	3,963318
0,782000	0,838623	4,953308
0,783000	0,772247	4,999847
0,784000	0,857239	4,999847
0,785000	0,761108	4,999847
0,786000	0,875244	4,999847
0,787000	0,773163	4,999847
0,788000	0,886536	4,999847
0,789000	0,797119	4,706726
0,790000	0,867157	2,755280
0,791000	0,817566	4,665527
0,792000	0,847473	3,529358
0,793000	0,836792	4,999847
0,794000	0,828857	4,999847
0,795000	0,853882	4,999847
0,796000	0,814514	4,999847
0,797000	0,873871	4,999847
0,798000	0,797119	4,999847
0,799000	0,889130	4,279938
0,800000	0,782776	3,086395
0,801000	0,902557	3,393402
0,802000	0,802612	4,999847
0,803000	0,903168	4,999847
0,804000	0,823212	4,999847
0,805000	0,880737	4,999847
0,806000	0,843353	4,999847
0,807000	0,863800	4,999847
0,808000	0,864563	4,999847
0,809000	0,844421	4,492950
0,810000	0,881958	4,222260
0,811000	0,825653	3,654633
0,812000	0,896912	4,231110
0,813000	0,808105	4,999847
0,814000	0,909271	4,999847
0,815000	0,799408	4,999847
0,816000	0,915527	4,999847
0,817000	0,821838	4,999847
0,818000	0,906677	4,837799
0,819000	0,843964	3,209839
0,820000	0,883636	3,339233
0,821000	0,864410	3,303223
0,822000	0,862274	4,808197
0,823000	0,882721	4,999847
0,824000	0,849304	4,999847
0,825000	0,901642	4,999847
0,826000	0,831757	4,999847
0,827000	0,913391	4,999847
0,828000	0,813751	4,935608
0,829000	0,919647	4,338379
0,830000	0,815735	3,839569
0,831000	0,918579	4,571686
0,832000	0,838928	3,429871
0,833000	0,900879	4,999847
0,834000	0,860138	4,999847
0,835000	0,879364	4,999847
0,836000	0,879974	4,999847
0,837000	0,865326	4,999847
0,838000	0,900116	4,826355
0,839000	0,848389	3,390503
0,840000	0,913696	3,316498
0,841000	0,829620	4,280243
0,842000	0,740814	4,999847
0,843000	0,700378	4,999847
0,844000	0,681458	4,999847
0,845000	0,672913	4,999847
0,846000	0,669250	4,999847
0,847000	0,667114	4,999847
0,848000	0,665894	4,999847
0,849000	0,665741	4,563751
0,850000	0,665436	3,939972
0,851000	0,665283	3,842010
0,852000	0,664978	3,784332
0,853000	0,664673	4,999847
0,854000	0,664673	4,999847
0,855000	0,664520	4,999847
0,856000	0,664825	4,999847
0,857000	0,664520	4,999847
0,858000	0,664368	4,999847
0,859000	0,664520	3,207855
0,860000	0,664520	2,379761
0,861000	0,664368	4,733124
0,862000	0,664368	4,999847
0,863000	0,629730	4,999847
0,864000	0,600586	4,999847
0,865000	0,583801	4,999847
0,866000	0,582886	4,999847
0,867000	0,579529	4,999847
0,868000	0,578308	4,999847
0,869000	0,575256	4,578400
0,870000	0,578308	3,783722
0,871000	0,574188	4,999847
0,872000	0,569305	3,183289
0,873000	0,560760	4,999847
0,874000	0,561676	4,999847
0,875000	0,559540	4,999847
0,876000	0,557404	4,999847
0,877000	0,562286	4,999847
0,878000	0,567169	4,408264
0,879000	0,567474	3,186493
0,880000	0,563049	2,373199
0,881000	0,540771	4,235229
0,882000	0,546417	4,743652
0,883000	0,560608	4,999847
0,884000	0,561981	4,999847
0,885000	0,568237	4,999847
0,886000	0,569458	4,999847
0,887000	0,566101	4,999847
0,888000	0,562592	4,999847
0,889000	0,564423	4,113312
0,890000	0,561523	2,842407
0,891000	0,565338	4,282074
0,892000	0,566864	4,325409
0,893000	0,564575	4,999847
0,894000	0,565948	4,999847
0,895000	0,565948	4,999847
0,896000	0,566559	4,999847
0,897000	0,566711	4,999847
0,898000	0,568390	4,999847
0,899000	0,563507	3,603363
0,900000	0,564575	4,262543
0,901000	0,563660	3,665161
0,902000	0,566864	4,999847
0,903000	0,564117	4,999847
0,904000	0,565491	4,999847
0,905000	0,565338	4,999847
0,906000	0,569763	4,999847
0,907000	0,569153	4,999847
0,908000	0,567169	4,899750
0,909000	0,570526	3,792419
0,910000	0,571442	3,836823
0,911000	0,576324	3,519135
0,912000	0,573425	4,200745
0,913000	0,576324	4,999847
0,914000	0,568542	4,999847
0,915000	0,564880	4,999847
0,916000	0,562286	4,999847
0,917000	0,567474	4,999847
0,918000	0,578613	4,999847
0,919000	0,588379	3,532257
0,920000	0,606689	2,763519
0,921000	0,605164	4,999847
0,922000	0,605164	4,287262
0,923000	0,598450	4,999847
0,924000	0,598755	4,999847
0,925000	0,593567	4,999847
0,926000	0,594635	4,999847
0,927000	0,590820	4,999847
0,928000	0,590363	4,999847
0,929000	0,589294	4,360352
0,930000	0,591888	3,444977
0,931000	0,590210	4,354095
0,932000	0,590210	3,828735
0,933000	0,589752	4,999847
0,934000	0,586243	4,999847
0,935000	0,586700	4,999847
0,936000	0,586090	4,999847
0,937000	0,588989	4,999847
0,938000	0,589752	4,999847
0,939000	0,589752	3,081512
0,940000	0,588684	3,852539
0,941000	0,588531	3,455353
0,942000	0,584259	4,926453
0,943000	0,584106	4,999847
0,944000	0,584259	4,999847
0,945000	0,587006	4,999847
0,946000	0,579834	4,999847
0,947000	0,575104	4,999847
0,948000	0,569153	4,765625
0,949000	0,569305	3,662262
0,950000	0,567474	3,147888
0,951000	0,571747	4,350891
0,952000	0,568390	4,984894
0,953000	0,575409	4,999847
0,954000	0,573120	4,999847
0,955000	0,579987	4,999847
0,956000	0,576477	4,999847
0,957000	0,583344	4,999847
0,958000	0,580902	4,669647
0,959000	0,585785	3,219604
0,960000	0,586090	3,876038
0,961000	0,590515	2,394409
0,962000	0,590210	4,500885
0,963000	0,583649	4,999847
0,964000	0,583649	4,999847
0,965000	0,578156	4,999847
0,966000	0,584259	4,999847
0,967000	0,576324	4,999847
0,968000	0,586853	4,658356
0,969000	0,578766	3,492432
0,970000	0,592041	3,108063
0,971000	0,583344	2,947693
0,972000	0,596771	3,735199
0,973000	0,589294	4,999847
0,974000	0,596313	4,999847
0,975000	0,591736	4,999847
0,976000	0,592957	4,999847
0,977000	0,591736	4,999847
0,978000	0,591278	4,035339
0,979000	0,597229	2,830963
0,980000	0,585937	2,917633
0,981000	0,595856	4,451447
0,982000	0,583496	4,999847
0,983000	0,601349	4,999847
0,984000	0,541840	4,999847
0,985000	0,587769	4,999847
0,986000	0,578156	4,999847
0,987000	0,601959	4,999847
0,988000	0,589142	4,246063
0,989000	0,601807	4,279480
0,990000	0,594025	3,096313
0,991000	0,598145	3,952637
0,992000	0,602722	4,435272
0,993000	0,595856	4,999847
0,994000	0,607758	4,999847
0,995000	0,589294	4,999847
0,996000	0,609894	4,999847
0,997000	0,596466	4,999847
0,998000	0,621490	4,999847
0,999000	0,595551	4,095612

