LabVIEW Measurement	
Writer_Version	2
Reader_Version	2
Separator	Tab
Decimal_Separator	,
Multi_Headings	Yes
X_Columns	One
Time_Pref	Absolute
Operator	d.nicolai
Date	2023/11/09
Time	16:04:05,6565121999996605588
***End_of_Header***	
	
Channels	2		
Samples	1000	1000	
Date	2023/11/09	2023/11/09	
Time	16:04:27,964512599999501078	16:04:27,964512599999501078	
Y_Unit_Label	Volts	Volts	
X_Dimension	Time	Time	
X0	0,0000000000000000E+0	0,0000000000000000E+0	
Delta_X	0,001000	0,001000	
***End_of_Header***			
X_Value	powebox	triggerbox	Comment
0,000000	0,529785	0,936279
0,001000	0,530090	4,793091
0,002000	0,530701	4,184418
0,003000	0,531616	4,999847
0,004000	0,531311	4,999847
0,005000	0,529633	4,999847
0,006000	0,526123	4,999847
0,007000	0,530548	4,999847
0,008000	0,535278	4,876099
0,009000	0,536041	2,637482
0,010000	0,538483	1,940308
0,011000	0,540009	4,662170
0,012000	0,542755	4,999847
0,013000	0,554352	4,999847
0,014000	0,568237	4,999847
0,015000	0,572968	4,999847
0,016000	0,573730	4,999847
0,017000	0,573425	4,999847
0,018000	0,574951	4,999847
0,019000	0,574341	3,998718
0,020000	0,575562	3,653564
0,021000	0,573273	3,827972
0,022000	0,568085	4,647522
0,023000	0,563507	4,999847
0,024000	0,562439	4,999847
0,025000	0,557251	4,999847
0,026000	0,556183	4,999847
0,027000	0,558929	4,999847
0,028000	0,561218	4,798737
0,029000	0,566254	3,063812
0,030000	0,567474	4,999847
0,031000	0,570374	3,570557
0,032000	0,544128	4,974976
0,033000	0,536957	4,999847
0,034000	0,514069	4,999847
0,035000	0,540314	4,999847
0,036000	0,545197	4,999847
0,037000	0,560455	4,999847
0,038000	0,559998	4,582672
0,039000	0,567627	3,948822
0,040000	0,565491	3,204803
0,041000	0,568542	4,734802
0,042000	0,560913	3,755798
0,043000	0,549469	4,648132
0,044000	0,549622	4,999847
0,045000	0,532532	4,999847
0,046000	0,548248	4,999847
0,047000	0,532532	4,999847
0,048000	0,553284	4,091339
0,049000	0,537567	3,546906
0,050000	0,561829	3,266296
0,051000	0,547638	4,126892
0,052000	0,567474	4,794464
0,053000	0,556030	4,999847
0,054000	0,567169	4,999847
0,055000	0,563507	4,999847
0,056000	0,569611	4,999847
0,057000	0,571136	4,999847
0,058000	0,570526	4,558258
0,059000	0,576935	3,873138
0,060000	0,573273	4,908600
0,061000	0,590363	3,479614
0,062000	0,588074	4,999847
0,063000	0,598602	4,999847
0,064000	0,591888	4,999847
0,065000	0,603638	4,999847
0,066000	0,591888	4,999847
0,067000	0,603638	4,999847
0,068000	0,597839	4,453888
0,069000	0,602875	3,748932
0,070000	0,582733	2,852325
0,071000	0,567017	4,244232
0,072000	0,585327	4,999847
0,073000	0,593109	4,999847
0,074000	0,601196	4,999847
0,075000	0,591583	4,999847
0,076000	0,603485	4,999847
0,077000	0,585937	4,999847
0,078000	0,604706	4,359894
0,079000	0,587463	3,877563
0,080000	0,607910	3,371429
0,081000	0,593567	4,049683
0,082000	0,610657	4,728699
0,083000	0,604095	4,999847
0,084000	0,603333	4,999847
0,085000	0,590973	4,999847
0,086000	0,603485	4,999847
0,087000	0,612793	4,999847
0,088000	0,604706	4,999847
0,089000	0,619812	2,859650
0,090000	0,604401	3,526001
0,091000	0,627289	3,000793
0,092000	0,600433	4,989014
0,093000	0,631409	4,999847
0,094000	0,602417	4,999847
0,095000	0,633850	4,999847
0,096000	0,614166	4,999847
0,097000	0,635834	4,999847
0,098000	0,634613	4,999847
0,099000	0,644226	4,998322
0,100000	0,642242	3,564606
0,101000	0,637665	4,384308
0,102000	0,644836	4,019928
0,103000	0,634766	4,999847
0,104000	0,650024	4,999847
0,105000	0,631104	4,999847
0,106000	0,653381	4,999847
0,107000	0,626526	4,999847
0,108000	0,657349	3,868256
0,109000	0,628967	3,543396
0,110000	0,654602	2,837982
0,111000	0,633087	4,096375
0,112000	0,650940	4,690857
0,113000	0,634155	4,999847
0,114000	0,634460	4,999847
0,115000	0,635529	4,999847
0,116000	0,625610	4,999847
0,117000	0,642395	4,999847
0,118000	0,620117	4,999847
0,119000	0,650177	4,472504
0,120000	0,619049	3,592834
0,121000	0,658722	4,049225
0,122000	0,615082	4,288330
0,123000	0,663757	4,999847
0,124000	0,620880	4,999847
0,125000	0,655975	4,999847
0,126000	0,631104	4,999847
0,127000	0,647583	4,999847
0,128000	0,640869	4,999847
0,129000	0,643005	3,510590
0,130000	0,651093	2,743988
0,131000	0,635376	4,441681
0,132000	0,657959	4,423370
0,133000	0,627747	4,999847
0,134000	0,665741	4,999847
0,135000	0,623016	4,999847
0,136000	0,673981	4,999847
0,137000	0,620422	4,999847
0,138000	0,675354	4,583740
0,139000	0,634460	4,535522
0,140000	0,666809	3,985901
0,141000	0,646057	2,751923
0,142000	0,659332	4,670715
0,143000	0,656128	4,999847
0,144000	0,651398	4,999847
0,145000	0,664978	4,999847
0,146000	0,643311	4,999847
0,147000	0,673828	4,999847
0,148000	0,635681	4,999847
0,149000	0,682678	2,633209
0,150000	0,631256	3,972168
0,151000	0,692596	3,637238
0,152000	0,636139	4,724426
0,153000	0,689545	4,999847
0,154000	0,653839	4,999847
0,155000	0,682526	4,999847
0,156000	0,662994	4,999847
0,157000	0,669098	4,999847
0,158000	0,672607	4,593048
0,159000	0,666504	3,872223
0,160000	0,687408	4,494019
0,161000	0,657349	4,192352
0,162000	0,695343	4,656677
0,163000	0,643158	4,999847
0,164000	0,700836	4,999847
0,165000	0,638580	4,999847
0,166000	0,710907	4,999847
0,167000	0,647736	4,999847
0,168000	0,701752	4,592285
0,169000	0,636902	2,999878
0,170000	0,597229	2,471466
0,171000	0,590363	4,441071
0,172000	0,580597	4,687195
0,173000	0,618134	4,999847
0,174000	0,606232	4,999847
0,175000	0,689392	4,999847
0,176000	0,632019	4,999847
0,177000	0,713806	4,999847
0,178000	0,646515	4,999847
0,179000	0,700836	3,394928
0,180000	0,651703	3,054810
0,181000	0,682220	3,822174
0,182000	0,666199	3,476868
0,183000	0,665436	4,999847
0,184000	0,675201	4,999847
0,185000	0,653839	4,999847
0,186000	0,691986	4,999847
0,187000	0,648651	4,999847
0,188000	0,708008	4,438324
0,189000	0,645599	2,943268
0,190000	0,722809	3,539581
0,191000	0,638123	4,999847
0,192000	0,727539	4,999847
0,193000	0,658722	4,999847
0,194000	0,715179	4,999847
0,195000	0,679016	4,999847
0,196000	0,704803	4,999847
0,197000	0,695343	4,999847
0,198000	0,693665	4,757996
0,199000	0,710602	3,318939
0,200000	0,682983	3,205414
0,201000	0,724335	3,514252
0,202000	0,673370	4,317780
0,203000	0,737000	4,999847
0,204000	0,662842	4,999847
0,205000	0,747833	4,999847
0,206000	0,658569	4,999847
0,207000	0,744781	4,999847
0,208000	0,677185	4,919434
0,209000	0,691528	2,750244
0,210000	0,661011	4,944458
0,211000	0,675049	4,531555
0,212000	0,673370	4,934540
0,213000	0,664215	4,999847
0,214000	0,691223	4,999847
0,215000	0,653992	4,999847
0,216000	0,705261	4,999847
0,217000	0,646210	4,999847
0,218000	0,718536	4,999847
0,219000	0,637360	3,307037
0,220000	0,730896	1,791840
0,221000	0,642548	4,470062
0,222000	0,720673	4,999847
0,223000	0,663605	4,999847
0,224000	0,713348	4,999847
0,225000	0,693970	4,999847
0,226000	0,710602	4,999847
0,227000	0,712585	4,999847
0,228000	0,693665	4,999847
0,229000	0,722656	3,228760
0,230000	0,684204	2,167664
0,231000	0,736847	4,327850
0,232000	0,665741	4,999847
0,233000	0,743866	4,999847
0,234000	0,655518	4,999847
0,235000	0,755463	4,999847
0,236000	0,670929	4,999847
0,237000	0,744629	4,999847
0,238000	0,690918	4,445343
0,239000	0,726013	4,097443
0,240000	0,707092	3,891754
0,241000	0,712738	2,754364
0,242000	0,724640	4,476776
0,243000	0,692749	4,999847
0,244000	0,737915	4,999847
0,245000	0,695190	4,999847
0,246000	0,756073	4,999847
0,247000	0,673981	4,999847
0,248000	0,763855	4,976959
0,249000	0,670471	2,951508
0,250000	0,776215	2,814636
0,251000	0,693359	4,999847
0,252000	0,762329	4,999847
0,253000	0,712891	4,999847
0,254000	0,744781	4,999847
0,255000	0,731506	4,999847
0,256000	0,727081	4,999847
0,257000	0,746155	4,999847
0,258000	0,706482	4,999847
0,259000	0,758057	3,706665
0,260000	0,697174	2,857819
0,261000	0,772858	4,105682
0,262000	0,686493	4,005737
0,263000	0,788116	4,999847
0,264000	0,691986	4,999847
0,265000	0,790100	4,999847
0,266000	0,713348	4,999847
0,267000	0,762177	4,999847
0,268000	0,725708	3,747253
0,269000	0,744781	3,851776
0,270000	0,744476	2,400970
0,271000	0,729523	4,828796
0,272000	0,761566	4,999847
0,273000	0,717163	4,999847
0,274000	0,778351	4,999847
0,275000	0,678864	4,999847
0,276000	0,775909	4,999847
0,277000	0,685425	4,999847
0,278000	0,804443	4,999847
0,279000	0,711823	3,965607
0,280000	0,799255	4,064636
0,281000	0,733032	3,811493
0,282000	0,778351	4,861450
0,283000	0,751495	4,999847
0,284000	0,766296	4,999847
0,285000	0,771942	4,999847
0,286000	0,747223	4,999847
0,287000	0,787048	4,999847
0,288000	0,738068	4,195557
0,289000	0,805817	2,846680
0,290000	0,724487	3,504639
0,291000	0,820465	4,380035
0,292000	0,717773	4,999847
0,293000	0,832214	4,999847
0,294000	0,741272	4,999847
0,295000	0,821075	4,999847
0,296000	0,762024	4,999847
0,297000	0,800629	4,999847
0,298000	0,779572	4,837494
0,299000	0,781097	4,384613
0,300000	0,796814	2,863770
0,301000	0,764618	3,379974
0,302000	0,813293	4,628601
0,303000	0,753174	4,999847
0,304000	0,830383	4,999847
0,305000	0,737610	4,999847
0,306000	0,841675	4,999847
0,307000	0,741425	4,999847
0,308000	0,844269	4,488831
0,309000	0,761414	3,129425
0,310000	0,827789	4,090576
0,311000	0,783386	2,983246
0,312000	0,808716	4,999847
0,313000	0,802002	4,999847
0,314000	0,792084	4,999847
0,315000	0,819702	4,999847
0,316000	0,778961	4,999847
0,317000	0,836029	4,999847
0,318000	0,766754	4,999847
0,319000	0,848236	4,317780
0,320000	0,753632	4,124908
0,321000	0,854340	3,769379
0,322000	0,767670	4,507446
0,323000	0,854340	4,999847
0,324000	0,789185	4,999847
0,325000	0,832672	4,999847
0,326000	0,802765	4,999847
0,327000	0,817108	4,999847
0,328000	0,823364	4,712067
0,329000	0,805054	4,196777
0,330000	0,840912	3,052521
0,331000	0,787354	4,999847
0,332000	0,850830	4,999847
0,333000	0,771332	4,999847
0,334000	0,855560	4,999847
0,335000	0,761108	4,999847
0,336000	0,857849	4,999847
0,337000	0,784454	4,999847
0,338000	0,854950	4,408112
0,339000	0,734863	3,829651
0,340000	0,672913	2,745514
0,341000	0,644531	4,544067
0,342000	0,631866	4,858551
0,343000	0,625458	4,999847
0,344000	0,622559	4,999847
0,345000	0,621338	4,999847
0,346000	0,620728	4,999847
0,347000	0,620117	4,999847
0,348000	0,620117	4,230804
0,349000	0,619659	3,321686
0,350000	0,619812	2,214355
0,351000	0,619202	4,999847
0,352000	0,619659	4,999847
0,353000	0,619354	4,999847
0,354000	0,619965	4,999847
0,355000	0,620117	4,999847
0,356000	0,619507	4,999847
0,357000	0,619507	4,999847
0,358000	0,619507	4,999847
0,359000	0,619354	4,645844
0,360000	0,613098	3,582153
0,361000	0,588074	3,616333
0,362000	0,575562	4,999847
0,363000	0,567322	4,999847
0,364000	0,563202	4,999847
0,365000	0,550232	4,999847
0,366000	0,535583	4,999847
0,367000	0,535431	4,999847
0,368000	0,541229	4,771271
0,369000	0,556335	3,717194
0,370000	0,561981	3,339996
0,371000	0,558624	4,999847
0,372000	0,561371	4,999847
0,373000	0,565033	4,999847
0,374000	0,554962	4,999847
0,375000	0,546112	4,999847
0,376000	0,537872	4,999847
0,377000	0,526886	4,999847
0,378000	0,492249	4,999847
0,379000	0,504456	4,327698
0,380000	0,520020	4,880829
0,381000	0,527496	3,341522
0,382000	0,531158	4,408112
0,383000	0,533600	4,999847
0,384000	0,539093	4,999847
0,385000	0,548248	4,999847
0,386000	0,553589	4,999847
0,387000	0,558472	4,999847
0,388000	0,561676	4,748688
0,389000	0,561829	3,437195
0,390000	0,562286	3,318176
0,391000	0,563202	4,999847
0,392000	0,563812	4,999847
0,393000	0,560913	4,999847
0,394000	0,561218	4,999847
0,395000	0,560760	4,999847
0,396000	0,562286	4,999847
0,397000	0,562897	4,999847
0,398000	0,563660	4,999847
0,399000	0,564270	4,273224
0,400000	0,565186	3,809662
0,401000	0,564270	3,079681
0,402000	0,559387	4,359894
0,403000	0,547333	4,999847
0,404000	0,545044	4,999847
0,405000	0,556793	4,999847
0,406000	0,559387	4,999847
0,407000	0,557404	4,999847
0,408000	0,557556	4,999847
0,409000	0,548096	3,471375
0,410000	0,539551	2,785645
0,411000	0,537262	4,429321
0,412000	0,540619	4,185486
0,413000	0,564423	4,999847
0,414000	0,576172	4,999847
0,415000	0,583191	4,999847
0,416000	0,582733	4,999847
0,417000	0,583496	4,999847
0,418000	0,583038	4,999847
0,419000	0,574188	4,917145
0,420000	0,565643	3,948975
0,421000	0,569611	4,188538
0,422000	0,563354	4,860077
0,423000	0,561676	4,999847
0,424000	0,561371	4,999847
0,425000	0,553894	4,999847
0,426000	0,551453	4,999847
0,427000	0,550079	4,999847
0,428000	0,547333	4,746399
0,429000	0,549011	2,948608
0,430000	0,549164	3,326569
0,431000	0,558167	4,490051
0,432000	0,564117	4,999847
0,433000	0,573273	4,999847
0,434000	0,576324	4,999847
0,435000	0,573730	4,999847
0,436000	0,575409	4,999847
0,437000	0,574799	4,999847
0,438000	0,572357	4,999847
0,439000	0,569916	3,405609
0,440000	0,527649	2,953796
0,441000	0,530548	4,010468
0,442000	0,549164	4,220581
0,443000	0,559692	4,999847
0,444000	0,562439	4,999847
0,445000	0,552979	4,999847
0,446000	0,552368	4,999847
0,447000	0,550842	4,999847
0,448000	0,549469	4,699554
0,449000	0,550842	2,703552
0,450000	0,556793	3,575439
0,451000	0,554962	4,996490
0,452000	0,556641	4,999847
0,453000	0,556488	4,999847
0,454000	0,560608	4,999847
0,455000	0,565491	4,999847
0,456000	0,591888	4,999847
0,457000	0,598602	4,999847
0,458000	0,604095	4,999847
0,459000	0,599670	3,502808
0,460000	0,604858	4,742126
0,461000	0,597534	3,303986
0,462000	0,601196	3,643799
0,463000	0,599213	4,999847
0,464000	0,600739	4,999847
0,465000	0,599518	4,999847
0,466000	0,601501	4,999847
0,467000	0,587463	4,999847
0,468000	0,595398	4,999847
0,469000	0,595856	3,480682
0,470000	0,573578	4,999847
0,471000	0,565186	4,540558
0,472000	0,570679	4,498138
0,473000	0,574646	4,999847
0,474000	0,569763	4,999847
0,475000	0,572205	4,999847
0,476000	0,551910	4,999847
0,477000	0,565338	4,999847
0,478000	0,578461	4,999847
0,479000	0,587006	4,395599
0,480000	0,543823	2,247162
0,481000	0,537872	2,692261
0,482000	0,564423	4,337921
0,483000	0,564728	4,999847
0,484000	0,573578	4,999847
0,485000	0,566254	4,999847
0,486000	0,578003	4,999847
0,487000	0,565338	4,999847
0,488000	0,581970	4,999847
0,489000	0,567017	3,614502
0,490000	0,585327	3,766174
0,491000	0,584259	3,817139
0,492000	0,616608	4,999847
0,493000	0,616913	4,999847
0,494000	0,629425	4,999847
0,495000	0,631104	4,999847
0,496000	0,634460	4,999847
0,497000	0,634918	4,999847
0,498000	0,630493	4,999847
0,499000	0,635681	4,087830
0,500000	0,621643	3,324738
0,501000	0,634766	3,162537
0,502000	0,610046	4,999847
0,503000	0,616608	4,999847
0,504000	0,599976	4,999847
0,505000	0,613708	4,999847
0,506000	0,601349	4,999847
0,507000	0,609589	4,999847
0,508000	0,602264	4,416656
0,509000	0,606384	3,224335
0,510000	0,607605	2,879028
0,511000	0,605774	3,964386
0,512000	0,612793	4,999847
0,513000	0,608368	4,999847
0,514000	0,618134	4,999847
0,515000	0,612488	4,999847
0,516000	0,640106	4,999847
0,517000	0,601959	4,999847
0,518000	0,615692	4,999847
0,519000	0,609131	4,243317
0,520000	0,625305	4,506836
0,521000	0,618896	4,176025
0,522000	0,628662	4,582367
0,523000	0,624084	4,999847
0,524000	0,625610	4,999847
0,525000	0,626373	4,999847
0,526000	0,621033	4,999847
0,527000	0,627594	4,999847
0,528000	0,620575	4,564362
0,529000	0,631104	3,420563
0,530000	0,619049	4,113312
0,531000	0,636749	4,991150
0,532000	0,619659	4,854279
0,533000	0,635681	4,999847
0,534000	0,614777	4,999847
0,535000	0,626068	4,999847
0,536000	0,605621	4,999847
0,537000	0,614319	4,999847
0,538000	0,607452	4,999847
0,539000	0,606689	3,661652
0,540000	0,612488	4,999847
0,541000	0,613098	3,150482
0,542000	0,630951	4,999847
0,543000	0,621796	4,999847
0,544000	0,639191	4,999847
0,545000	0,615540	4,999847
0,546000	0,640869	4,999847
0,547000	0,617828	4,999847
0,548000	0,643158	4,999847
0,549000	0,612030	3,950958
0,550000	0,628662	1,718292
0,551000	0,611572	4,660339
0,552000	0,624084	4,999847
0,553000	0,626221	4,999847
0,554000	0,628204	4,999847
0,555000	0,637817	4,999847
0,556000	0,623932	4,999847
0,557000	0,644226	4,999847
0,558000	0,624390	4,999847
0,559000	0,651398	4,324951
0,560000	0,618744	3,238831
0,561000	0,655518	3,882904
0,562000	0,610046	4,229279
0,563000	0,646667	4,999847
0,564000	0,617523	4,999847
0,565000	0,639038	4,999847
0,566000	0,626068	4,999847
0,567000	0,631866	4,926300
0,568000	0,651855	4,754333
0,569000	0,643463	3,799896
0,570000	0,660706	2,638702
0,571000	0,638275	4,319916
0,572000	0,668945	4,999847
0,573000	0,631866	4,999847
0,574000	0,676575	4,999847
0,575000	0,602875	4,999847
0,576000	0,656891	4,999847
0,577000	0,611420	4,999847
0,578000	0,649261	4,999847
0,579000	0,622406	4,613800
0,580000	0,642395	3,686829
0,581000	0,634918	3,567047
0,582000	0,619507	4,779816
0,583000	0,605316	4,999847
0,584000	0,618439	4,999847
0,585000	0,652618	4,999847
0,586000	0,635376	4,999847
0,587000	0,670013	4,999847
0,588000	0,643311	4,708710
0,589000	0,682220	3,500824
0,590000	0,638428	3,173676
0,591000	0,686340	4,999847
0,592000	0,649414	4,999847
0,593000	0,679321	4,999847
0,594000	0,658569	4,999847
0,595000	0,670166	4,999847
0,596000	0,664368	4,999847
0,597000	0,660858	4,999847
0,598000	0,670776	4,908905
0,599000	0,654449	4,215851
0,600000	0,680542	4,023285
0,601000	0,646515	3,707886
0,602000	0,685730	4,667969
0,603000	0,622406	4,999847
0,604000	0,684967	4,999847
0,605000	0,636444	4,999847
0,606000	0,691833	4,999847
0,607000	0,623322	4,999847
0,608000	0,596313	4,055939
0,609000	0,574341	3,322449
0,610000	0,665894	3,267212
0,611000	0,603027	4,691010
0,612000	0,674286	4,999847
0,613000	0,622101	4,999847
0,614000	0,665436	4,999847
0,615000	0,644989	4,999847
0,616000	0,655060	4,999847
0,617000	0,657501	4,999847
0,618000	0,644836	4,999847
0,619000	0,668335	4,163666
0,620000	0,628204	2,982025
0,621000	0,672913	4,012451
0,622000	0,614471	4,999847
0,623000	0,683289	4,999847
0,624000	0,605621	4,999847
0,625000	0,693665	4,999847
0,626000	0,610199	4,999847
0,627000	0,679626	4,916229
0,628000	0,628967	4,999847
0,629000	0,664062	3,502197
0,630000	0,649261	2,501678
0,631000	0,656738	4,999847
0,632000	0,666046	4,999847
0,633000	0,648041	4,999847
0,634000	0,681915	4,999847
0,635000	0,639954	4,999847
0,636000	0,695648	4,999847
0,637000	0,644989	4,977722
0,638000	0,714264	4,999847
0,639000	0,639191	4,186859
0,640000	0,724487	4,168396
0,641000	0,661774	4,364929
0,642000	0,721283	4,659576
0,643000	0,682373	4,999847
0,644000	0,704956	4,999847
0,645000	0,693512	4,999847
0,646000	0,694122	4,999847
0,647000	0,705719	4,880219
0,648000	0,681152	4,190826
0,649000	0,714569	3,521729
0,650000	0,675507	3,054047
0,651000	0,727692	4,500885
0,652000	0,664215	4,999847
0,653000	0,738525	4,999847
0,654000	0,662842	4,999847
0,655000	0,746613	4,999847
0,656000	0,674133	4,999847
0,657000	0,719147	4,999847
0,658000	0,678558	4,999847
0,659000	0,695190	3,783417
0,660000	0,688171	4,689178
0,661000	0,678253	4,383698
0,662000	0,703888	4,318848
0,663000	0,668640	4,999847
0,664000	0,719147	4,999847
0,665000	0,655670	4,999847
0,666000	0,731812	4,999847
0,667000	0,645599	4,999847
0,668000	0,744934	4,529114
0,669000	0,651855	2,868500
0,670000	0,740356	4,485779
0,671000	0,672760	4,999847
0,672000	0,723724	4,999847
0,673000	0,692291	4,999847
0,674000	0,709686	4,999847
0,675000	0,711212	4,999847
0,676000	0,694733	4,999847
0,677000	0,726624	4,999847
0,678000	0,679932	4,864044
0,679000	0,740356	4,125824
0,680000	0,668945	4,576416
0,681000	0,753784	4,383392
0,682000	0,658264	4,497986
0,683000	0,766602	4,999847
0,684000	0,673676	4,999847
0,685000	0,728912	4,999847
0,686000	0,683899	4,999847
0,687000	0,735168	4,999847
0,688000	0,713501	4,771576
0,689000	0,723724	2,980957
0,690000	0,732422	2,412415
0,691000	0,709991	4,999847
0,692000	0,748444	4,999847
0,693000	0,694580	4,999847
0,694000	0,761719	4,999847
0,695000	0,686188	4,999847
0,696000	0,778503	4,999847
0,697000	0,690460	4,999847
0,698000	0,798798	4,999847
0,699000	0,721588	3,001404
0,700000	0,805359	4,999847
0,701000	0,741272	3,577576
0,702000	0,781403	4,790497
0,703000	0,753174	4,999847
0,704000	0,757904	4,999847
0,705000	0,765228	4,999847
0,706000	0,740662	4,999847
0,707000	0,780640	4,999847
0,708000	0,727997	4,229736
0,709000	0,796509	2,982788
0,710000	0,720520	3,430328
0,711000	0,812988	4,999847
0,712000	0,723724	4,909210
0,713000	0,826569	4,999847
0,714000	0,745392	4,999847
0,715000	0,825806	4,999847
0,716000	0,767365	4,999847
0,717000	0,805664	4,999847
0,718000	0,781860	4,999847
0,719000	0,785522	3,811951
0,720000	0,797119	2,609863
0,721000	0,771332	4,107513
0,722000	0,814819	4,528961
0,723000	0,750885	4,999847
0,724000	0,825043	4,999847
0,725000	0,728302	4,999847
0,726000	0,833740	4,999847
0,727000	0,742950	4,999847
0,728000	0,842285	4,569855
0,729000	0,762939	3,456116
0,730000	0,817108	2,250061
0,731000	0,774841	4,993134
0,732000	0,800171	4,999847
0,733000	0,793915	4,999847
0,734000	0,783386	4,999847
0,735000	0,810699	4,999847
0,736000	0,770264	4,999847
0,737000	0,828400	4,999847
0,738000	0,751495	4,999847
0,739000	0,839233	2,925568
0,740000	0,729523	3,614655
0,741000	0,843353	3,672028
0,742000	0,749664	4,618683
0,743000	0,833588	4,999847
0,744000	0,770721	4,999847
0,745000	0,811615	4,999847
0,746000	0,788879	4,999847
0,747000	0,798035	4,999847
0,748000	0,809174	4,773102
0,749000	0,780792	3,097382
0,750000	0,825653	3,903656
0,751000	0,762329	4,870758
0,752000	0,838013	4,999847
0,753000	0,748901	4,999847
0,754000	0,848846	4,999847
0,755000	0,749207	4,999847
0,756000	0,851746	4,999847
0,757000	0,770111	4,999847
0,758000	0,834808	4,622345
0,759000	0,789185	4,193573
0,760000	0,820923	2,777100
0,761000	0,811462	3,936768
0,762000	0,804749	4,331512
0,763000	0,829926	4,948120
0,764000	0,787506	4,999847
0,765000	0,843201	4,999847
0,766000	0,768585	4,999847
0,767000	0,850983	4,999847
0,768000	0,753326	4,520264
0,769000	0,855865	3,090668
0,770000	0,762024	4,635620
0,771000	0,852966	4,387360
0,772000	0,786285	4,999847
0,773000	0,829315	4,999847
0,774000	0,802917	4,999847
0,775000	0,811615	4,999847
0,776000	0,709534	4,999847
0,777000	0,661926	4,999847
0,778000	0,639801	4,999847
0,779000	0,629578	4,002075
0,780000	0,625305	3,408813
0,781000	0,622711	3,956146
0,782000	0,622101	4,999847
0,783000	0,621033	4,999847
0,784000	0,620728	4,999847
0,785000	0,620880	4,999847
0,786000	0,620422	4,999847
0,787000	0,600128	4,999847
0,788000	0,592499	3,734589
0,789000	0,607758	2,664032
0,790000	0,614624	2,502441
0,791000	0,617523	4,850616
0,792000	0,619049	4,999847
0,793000	0,619354	4,999847
0,794000	0,619507	4,999847
0,795000	0,619659	4,999847
0,796000	0,619507	4,999847
0,797000	0,619659	4,999847
0,798000	0,587311	4,999847
0,799000	0,555115	4,175568
0,800000	0,542145	3,605804
0,801000	0,536194	3,860779
0,802000	0,525665	4,768372
0,803000	0,521088	4,999847
0,804000	0,521393	4,999847
0,805000	0,522461	4,999847
0,806000	0,520935	4,999847
0,807000	0,521393	4,999847
0,808000	0,517883	4,102173
0,809000	0,517426	3,256226
0,810000	0,514984	3,465424
0,811000	0,519562	4,999847
0,812000	0,519104	4,999847
0,813000	0,522308	4,999847
0,814000	0,524750	4,999847
0,815000	0,524292	4,999847
0,816000	0,526123	4,999847
0,817000	0,526581	4,999847
0,818000	0,531158	4,456329
0,819000	0,530243	3,614807
0,820000	0,534515	3,745728
0,821000	0,535126	4,681702
0,822000	0,536499	4,999847
0,823000	0,534668	4,999847
0,824000	0,533905	4,999847
0,825000	0,531769	4,999847
0,826000	0,531616	4,999847
0,827000	0,530090	4,999847
0,828000	0,530548	4,081268
0,829000	0,536041	3,028717
0,830000	0,539856	3,398437
0,831000	0,542755	4,471588
0,832000	0,541229	4,999847
0,833000	0,543671	4,999847
0,834000	0,541840	4,999847
0,835000	0,543213	4,999847
0,836000	0,539246	4,999847
0,837000	0,539246	4,999847
0,838000	0,539398	4,999847
0,839000	0,543060	4,344330
0,840000	0,541229	3,891144
0,841000	0,540619	3,186493
0,842000	0,542297	4,999847
0,843000	0,544128	4,999847
0,844000	0,546722	4,999847
0,845000	0,544586	4,999847
0,846000	0,545959	4,999847
0,847000	0,543365	4,987335
0,848000	0,544739	4,516754
0,849000	0,542297	3,307190
0,850000	0,541077	2,854919
0,851000	0,536652	4,871826
0,852000	0,540924	4,999847
0,853000	0,542603	4,999847
0,854000	0,546112	4,999847
0,855000	0,546417	4,999847
0,856000	0,548096	4,999847
0,857000	0,551453	4,999847
0,858000	0,552673	4,494476
0,859000	0,552826	3,919220
0,860000	0,547791	4,214020
0,861000	0,552979	3,323212
0,862000	0,552826	4,999847
0,863000	0,554352	4,999847
0,864000	0,553436	4,999847
0,865000	0,555420	4,999847
0,866000	0,554352	4,999847
0,867000	0,556183	4,942017
0,868000	0,554962	4,970093
0,869000	0,553284	3,205719
0,870000	0,553436	2,651367
0,871000	0,554047	4,672852
0,872000	0,552216	4,999847
0,873000	0,548706	4,999847
0,874000	0,550690	4,999847
0,875000	0,548553	4,999847
0,876000	0,549927	4,999847
0,877000	0,549316	4,999847
0,878000	0,552368	4,999847
0,879000	0,554657	4,079132
0,880000	0,556641	3,081665
0,881000	0,557098	3,847809
0,882000	0,557251	4,999847
0,883000	0,554962	4,999847
0,884000	0,553131	4,999847
0,885000	0,554504	4,999847
0,886000	0,560303	4,999847
0,887000	0,561371	4,999847
0,888000	0,564880	4,460449
0,889000	0,557251	3,670807
0,890000	0,525665	2,421112
0,891000	0,545502	4,999847
0,892000	0,553894	4,999847
0,893000	0,578308	4,999847
0,894000	0,577545	4,999847
0,895000	0,579376	4,999847
0,896000	0,576935	4,999847
0,897000	0,575409	4,999847
0,898000	0,572968	4,999847
0,899000	0,571899	4,225159
0,900000	0,577850	4,442596
0,901000	0,578918	4,446716
0,902000	0,578766	4,999847
0,903000	0,576477	4,999847
0,904000	0,572357	4,999847
0,905000	0,575104	4,999847
0,906000	0,569763	4,999847
0,907000	0,575409	4,999847
0,908000	0,576324	4,922485
0,909000	0,582581	2,384338
0,910000	0,577850	3,624725
0,911000	0,579071	4,798737
0,912000	0,576935	4,999847
0,913000	0,578613	4,999847
0,914000	0,580444	4,999847
0,915000	0,581818	4,999847
0,916000	0,582428	4,999847
0,917000	0,573273	4,999847
0,918000	0,578766	4,999847
0,919000	0,569305	3,656464
0,920000	0,579376	3,401642
0,921000	0,567169	4,598694
0,922000	0,582733	4,999847
0,923000	0,571136	4,999847
0,924000	0,581207	4,999847
0,925000	0,570526	4,999847
0,926000	0,579529	4,999847
0,927000	0,578613	4,999847
0,928000	0,581970	4,248962
0,929000	0,585022	3,183289
0,930000	0,577850	2,519531
0,931000	0,586395	4,999847
0,932000	0,581360	4,999847
0,933000	0,593414	4,999847
0,934000	0,583191	4,999847
0,935000	0,599060	4,999847
0,936000	0,585175	4,999847
0,937000	0,601959	4,999847
0,938000	0,588837	4,999847
0,939000	0,600586	2,978210
0,940000	0,593262	4,999847
0,941000	0,601959	4,484100
0,942000	0,601196	4,591370
0,943000	0,603790	4,999847
0,944000	0,605316	4,999847
0,945000	0,594330	4,999847
0,946000	0,603943	4,999847
0,947000	0,588684	4,999847
0,948000	0,606689	4,440460
0,949000	0,585175	3,063049
0,950000	0,610657	2,966919
0,951000	0,579987	4,999847
0,952000	0,609741	4,999847
0,953000	0,581207	4,999847
0,954000	0,600433	4,999847
0,955000	0,588989	4,999847
0,956000	0,599976	4,999847
0,957000	0,602112	4,999847
0,958000	0,598602	4,754639
0,959000	0,609131	3,484192
0,960000	0,592194	3,268890
0,961000	0,611572	3,995209
0,962000	0,601654	4,999847
0,963000	0,625763	4,999847
0,964000	0,604401	4,999847
0,965000	0,633087	4,999847
0,966000	0,604095	4,999847
0,967000	0,629425	4,999847
0,968000	0,608978	4,646301
0,969000	0,623627	2,816162
0,970000	0,617218	2,464752
0,971000	0,618439	4,554901
0,972000	0,619049	4,999847
0,973000	0,610352	4,999847
0,974000	0,625916	4,999847
0,975000	0,611267	4,999847
0,976000	0,634460	4,999847
0,977000	0,609589	4,999847
0,978000	0,641937	4,686584
0,979000	0,606842	3,881073
0,980000	0,646210	4,538422
0,981000	0,614319	3,797302
0,982000	0,640106	4,999847
0,983000	0,620422	4,999847
0,984000	0,633850	4,999847
0,985000	0,628052	4,999847
0,986000	0,629578	4,999847
0,987000	0,637817	4,999847
0,988000	0,627136	4,247894
0,989000	0,644989	2,878876
0,990000	0,625458	2,368469
0,991000	0,654297	4,495239
0,992000	0,580444	4,999847
0,993000	0,636749	4,999847
0,994000	0,608673	4,999847
0,995000	0,656738	4,999847
0,996000	0,627136	4,999847
0,997000	0,653534	4,999847
0,998000	0,636292	4,999847
0,999000	0,647125	3,271179

