LabVIEW Measurement	
Writer_Version	2
Reader_Version	2
Separator	Tab
Decimal_Separator	,
Multi_Headings	Yes
X_Columns	One
Time_Pref	Absolute
Operator	d.nicolai
Date	2023/11/09
Time	16:04:05,6565121999996605588
***End_of_Header***	
	
Channels	2		
Samples	1000	1000	
Date	2023/11/09	2023/11/09	
Time	16:04:26,9145127999995269677	16:04:26,9145127999995269677	
Y_Unit_Label	Volts	Volts	
X_Dimension	Time	Time	
X0	0,0000000000000000E+0	0,0000000000000000E+0	
Delta_X	0,001000	0,001000	
***End_of_Header***			
X_Value	powebox	triggerbox	Comment
0,000000	0,805969	0,921021
0,001000	0,808563	4,999847
0,002000	0,745544	4,003143
0,003000	0,796356	4,999847
0,004000	0,719299	4,999847
0,005000	0,804291	4,999847
0,006000	0,706024	4,999847
0,007000	0,817566	4,999847
0,008000	0,726318	4,787292
0,009000	0,815430	3,842621
0,010000	0,747223	3,141327
0,011000	0,796356	4,806671
0,012000	0,765991	3,454437
0,013000	0,807953	4,999847
0,014000	0,807190	4,999847
0,015000	0,818176	4,999847
0,016000	0,839844	4,999847
0,017000	0,812683	4,999847
0,018000	0,852966	4,295197
0,019000	0,790253	2,865601
0,020000	0,856018	2,461700
0,021000	0,772705	4,999847
0,022000	0,860138	4,620056
0,023000	0,782471	4,999847
0,024000	0,860748	4,999847
0,025000	0,813293	4,999847
0,026000	0,855560	4,999847
0,027000	0,826416	4,999847
0,028000	0,841370	4,999847
0,029000	0,842438	4,033966
0,030000	0,820770	3,237305
0,031000	0,848694	4,413147
0,032000	0,807343	3,578949
0,033000	0,859070	4,999847
0,034000	0,784760	4,999847
0,035000	0,862885	4,999847
0,036000	0,790100	4,999847
0,037000	0,865479	4,999847
0,038000	0,802765	4,875336
0,039000	0,861816	3,989410
0,040000	0,818634	4,252777
0,041000	0,856171	3,469238
0,042000	0,839996	4,389343
0,043000	0,845490	4,999847
0,044000	0,855865	4,999847
0,045000	0,783539	4,999847
0,046000	0,843201	4,999847
0,047000	0,768280	4,999847
0,048000	0,855103	4,992371
0,049000	0,756531	4,228516
0,050000	0,863342	4,901581
0,051000	0,775604	3,849335
0,052000	0,864868	3,830109
0,053000	0,830078	4,999847
0,054000	0,866852	4,999847
0,055000	0,850677	4,999847
0,056000	0,861969	4,999847
0,057000	0,858917	4,999847
0,058000	0,852051	4,999847
0,059000	0,864410	3,645172
0,060000	0,839996	3,674164
0,061000	0,867462	4,333496
0,062000	0,814667	4,778290
0,063000	0,867920	4,999847
0,064000	0,812073	4,999847
0,065000	0,869904	4,999847
0,066000	0,818176	4,999847
0,067000	0,866852	4,999847
0,068000	0,827179	4,958954
0,069000	0,863495	3,970337
0,070000	0,847321	3,458252
0,071000	0,851593	4,999847
0,072000	0,858765	3,539581
0,073000	0,827179	4,999847
0,074000	0,864716	4,999847
0,075000	0,821838	4,999847
0,076000	0,720520	4,999847
0,077000	0,672302	4,999847
0,078000	0,649567	4,539490
0,079000	0,638733	3,611298
0,080000	0,632782	4,503479
0,081000	0,630646	3,060913
0,082000	0,631104	4,494324
0,083000	0,630646	4,999847
0,084000	0,630798	4,999847
0,085000	0,629272	4,999847
0,086000	0,630951	4,999847
0,087000	0,630951	4,999847
0,088000	0,632172	4,999847
0,089000	0,630646	3,433533
0,090000	0,628967	3,855896
0,091000	0,628204	3,156281
0,092000	0,627289	2,877655
0,093000	0,628357	4,999847
0,094000	0,629730	4,999847
0,095000	0,630035	4,999847
0,096000	0,609741	4,999847
0,097000	0,606995	4,999847
0,098000	0,574036	4,907379
0,099000	0,560455	4,130707
0,100000	0,555420	3,210297
0,101000	0,553589	4,917450
0,102000	0,552826	4,999847
0,103000	0,551300	4,999847
0,104000	0,551758	4,999847
0,105000	0,563965	4,999847
0,106000	0,580139	4,999847
0,107000	0,587769	4,999847
0,108000	0,588989	4,999847
0,109000	0,590515	4,746857
0,110000	0,587311	4,085083
0,111000	0,589294	3,690796
0,112000	0,589142	4,349976
0,113000	0,588989	4,999847
0,114000	0,587769	4,999847
0,115000	0,591278	4,999847
0,116000	0,593109	4,999847
0,117000	0,589447	4,999847
0,118000	0,588226	4,073792
0,119000	0,586395	2,917786
0,120000	0,587921	3,434448
0,121000	0,585022	3,915710
0,122000	0,588989	4,999847
0,123000	0,580750	4,999847
0,124000	0,580139	4,999847
0,125000	0,578613	4,999847
0,126000	0,577393	4,999847
0,127000	0,571442	4,999847
0,128000	0,570984	4,999847
0,129000	0,558777	4,070282
0,130000	0,551300	3,864288
0,131000	0,570526	2,735443
0,132000	0,576172	4,144135
0,133000	0,579834	4,800415
0,134000	0,563354	4,999847
0,135000	0,540161	4,999847
0,136000	0,538788	4,999847
0,137000	0,537720	4,999847
0,138000	0,540466	4,786072
0,139000	0,541077	3,369598
0,140000	0,543365	4,253387
0,141000	0,544586	3,204346
0,142000	0,559692	4,789581
0,143000	0,575562	4,999847
0,144000	0,586090	4,999847
0,145000	0,589905	4,999847
0,146000	0,593414	4,999847
0,147000	0,587463	4,999847
0,148000	0,587006	4,397888
0,149000	0,585785	4,628906
0,150000	0,591125	2,868500
0,151000	0,588837	4,831696
0,152000	0,568085	4,276428
0,153000	0,561218	4,999847
0,154000	0,578918	4,999847
0,155000	0,586243	4,999847
0,156000	0,588379	4,999847
0,157000	0,589294	4,999847
0,158000	0,565338	4,999847
0,159000	0,553589	3,982086
0,160000	0,551453	2,779999
0,161000	0,548401	4,424438
0,162000	0,549927	4,738159
0,163000	0,548401	4,999847
0,164000	0,568542	4,999847
0,165000	0,586243	4,999847
0,166000	0,587158	4,999847
0,167000	0,597687	4,999847
0,168000	0,596161	4,999847
0,169000	0,601654	4,569702
0,170000	0,598907	2,922516
0,171000	0,599670	4,085236
0,172000	0,597992	4,510040
0,173000	0,594025	4,999847
0,174000	0,585022	4,999847
0,175000	0,589142	4,999847
0,176000	0,596008	4,999847
0,177000	0,592346	4,999847
0,178000	0,593719	4,749756
0,179000	0,587463	3,336639
0,180000	0,587006	2,282104
0,181000	0,587311	4,501648
0,182000	0,570068	4,999847
0,183000	0,556183	4,999847
0,184000	0,550995	4,999847
0,185000	0,548859	4,999847
0,186000	0,549469	4,999847
0,187000	0,549774	4,999847
0,188000	0,554352	4,999847
0,189000	0,581970	4,409943
0,190000	0,590057	3,542023
0,191000	0,600891	3,501129
0,192000	0,595856	4,371338
0,193000	0,602417	4,999847
0,194000	0,598297	4,999847
0,195000	0,602875	4,999847
0,196000	0,594330	4,999847
0,197000	0,591583	4,999847
0,198000	0,585785	4,521790
0,199000	0,556946	3,339996
0,200000	0,574951	2,587891
0,201000	0,581055	4,810638
0,202000	0,584106	4,999847
0,203000	0,587311	4,999847
0,204000	0,595398	4,999847
0,205000	0,592499	4,999847
0,206000	0,595703	4,999847
0,207000	0,587463	4,999847
0,208000	0,569763	4,999847
0,209000	0,556641	4,103699
0,210000	0,555573	2,515869
0,211000	0,558319	4,999847
0,212000	0,580750	3,171997
0,213000	0,587921	4,999847
0,214000	0,590210	4,999847
0,215000	0,595551	4,999847
0,216000	0,595398	4,999847
0,217000	0,590973	4,999847
0,218000	0,575256	4,865723
0,219000	0,568542	2,875671
0,220000	0,556641	4,148712
0,221000	0,562592	3,446198
0,222000	0,552826	4,963531
0,223000	0,562134	4,999847
0,224000	0,559998	4,999847
0,225000	0,576172	4,999847
0,226000	0,581970	4,999847
0,227000	0,591888	4,999847
0,228000	0,593414	4,999847
0,229000	0,592957	3,878174
0,230000	0,592194	3,759308
0,231000	0,588837	3,660431
0,232000	0,591431	3,587341
0,233000	0,579071	4,999847
0,234000	0,579529	4,999847
0,235000	0,573578	4,999847
0,236000	0,592346	4,999847
0,237000	0,585937	4,999847
0,238000	0,594635	4,248352
0,239000	0,589294	3,996887
0,240000	0,592194	2,776947
0,241000	0,578613	4,054718
0,242000	0,574341	4,279633
0,243000	0,572968	4,999847
0,244000	0,568695	4,999847
0,245000	0,576019	4,999847
0,246000	0,565186	4,999847
0,247000	0,579529	4,999847
0,248000	0,576630	4,949799
0,249000	0,593567	3,203735
0,250000	0,583038	3,662262
0,251000	0,600128	3,262177
0,252000	0,589752	4,210052
0,253000	0,601349	4,999847
0,254000	0,596008	4,999847
0,255000	0,602722	4,999847
0,256000	0,598297	4,999847
0,257000	0,598907	4,999847
0,258000	0,602722	4,549408
0,259000	0,598145	3,053131
0,260000	0,606689	2,120667
0,261000	0,600433	4,558868
0,262000	0,606995	4,703827
0,263000	0,578918	4,999847
0,264000	0,603180	4,999847
0,265000	0,574188	4,999847
0,266000	0,603027	4,999847
0,267000	0,580902	4,999847
0,268000	0,599213	4,999847
0,269000	0,588074	3,349304
0,270000	0,600891	3,633575
0,271000	0,605774	4,258575
0,272000	0,615692	4,298859
0,273000	0,627289	4,835358
0,274000	0,622406	4,999847
0,275000	0,634308	4,999847
0,276000	0,619659	4,999847
0,277000	0,637360	4,999847
0,278000	0,621033	4,999847
0,279000	0,641937	3,084412
0,280000	0,618439	4,629364
0,281000	0,640259	3,573456
0,282000	0,627136	4,939728
0,283000	0,636292	4,999847
0,284000	0,631714	4,999847
0,285000	0,634613	4,999847
0,286000	0,639343	4,999847
0,287000	0,623322	4,999847
0,288000	0,637817	4,683380
0,289000	0,629730	3,255157
0,290000	0,647888	3,272400
0,291000	0,629272	3,167725
0,292000	0,653381	2,848663
0,293000	0,628815	4,999847
0,294000	0,658112	4,999847
0,295000	0,613708	4,999847
0,296000	0,641785	4,999847
0,297000	0,629425	4,999847
0,298000	0,649567	4,999847
0,299000	0,647278	2,760010
0,300000	0,649414	4,678802
0,301000	0,619507	4,390411
0,302000	0,615692	3,966522
0,303000	0,638733	4,999847
0,304000	0,616455	4,999847
0,305000	0,648804	4,999847
0,306000	0,631256	4,999847
0,307000	0,666962	4,999847
0,308000	0,635223	4,999847
0,309000	0,672913	3,210449
0,310000	0,639954	4,185028
0,311000	0,664520	4,710693
0,312000	0,647430	4,273224
0,313000	0,657806	4,999847
0,314000	0,642853	4,999847
0,315000	0,633087	4,999847
0,316000	0,644989	4,999847
0,317000	0,624847	4,999847
0,318000	0,651398	4,552917
0,319000	0,619812	3,081360
0,320000	0,660248	1,158142
0,321000	0,608063	4,964752
0,322000	0,664978	4,999847
0,323000	0,606537	4,999847
0,324000	0,660400	4,999847
0,325000	0,618439	4,999847
0,326000	0,648651	4,999847
0,327000	0,628967	4,999847
0,328000	0,636292	4,999847
0,329000	0,639801	3,303833
0,330000	0,634766	4,999847
0,331000	0,656738	3,151855
0,332000	0,636749	3,787689
0,333000	0,672150	4,999847
0,334000	0,639038	4,999847
0,335000	0,683899	4,999847
0,336000	0,640106	4,999847
0,337000	0,694275	4,999847
0,338000	0,645599	4,908295
0,339000	0,690918	2,846069
0,340000	0,662537	4,086151
0,341000	0,683899	3,263092
0,342000	0,670013	4,265594
0,343000	0,674286	4,999847
0,344000	0,628815	4,999847
0,345000	0,610199	4,999847
0,346000	0,596161	4,999847
0,347000	0,643616	4,999847
0,348000	0,652161	4,999847
0,349000	0,679779	3,305511
0,350000	0,653229	4,999847
0,351000	0,690308	3,483887
0,352000	0,652161	4,473114
0,353000	0,701752	4,999847
0,354000	0,644684	4,999847
0,355000	0,708466	4,999847
0,356000	0,645447	4,999847
0,357000	0,693970	4,999847
0,358000	0,657196	3,809967
0,359000	0,680542	2,868195
0,360000	0,672150	2,982025
0,361000	0,661011	4,486084
0,362000	0,669403	4,999847
0,363000	0,643463	4,999847
0,364000	0,679779	4,999847
0,365000	0,634003	4,999847
0,366000	0,691986	4,999847
0,367000	0,631866	4,999847
0,368000	0,705566	4,367218
0,369000	0,628967	4,232178
0,370000	0,710754	1,792755
0,371000	0,648804	3,803711
0,372000	0,697479	4,454498
0,373000	0,666199	4,999847
0,374000	0,697479	4,999847
0,375000	0,697479	4,999847
0,376000	0,705872	4,999847
0,377000	0,717926	4,999847
0,378000	0,699310	3,674622
0,379000	0,726929	3,177185
0,380000	0,693512	3,294067
0,381000	0,737762	2,833862
0,382000	0,684204	4,661713
0,383000	0,744934	4,999847
0,384000	0,686798	4,999847
0,385000	0,752106	4,999847
0,386000	0,696716	4,999847
0,387000	0,737457	4,999847
0,388000	0,703125	4,999847
0,389000	0,726318	4,133148
0,390000	0,721588	1,842499
0,391000	0,713043	3,121490
0,392000	0,728455	3,716431
0,393000	0,705414	4,999847
0,394000	0,742187	4,999847
0,395000	0,695953	4,999847
0,396000	0,751495	4,999847
0,397000	0,681152	4,999847
0,398000	0,759277	4,890442
0,399000	0,683746	3,915253
0,400000	0,752869	3,352203
0,401000	0,693054	4,682159
0,402000	0,719757	4,999847
0,403000	0,679932	4,999847
0,404000	0,683136	4,999847
0,405000	0,683899	4,999847
0,406000	0,693665	4,999847
0,407000	0,727081	4,999847
0,408000	0,691986	4,131775
0,409000	0,751190	4,356537
0,410000	0,701447	3,814697
0,411000	0,769196	3,988495
0,412000	0,699005	4,999847
0,413000	0,782013	4,999847
0,414000	0,683289	4,999847
0,415000	0,749664	4,999847
0,416000	0,697021	4,999847
0,417000	0,727692	4,999847
0,418000	0,711823	4,270782
0,419000	0,713959	3,703003
0,420000	0,730743	3,100128
0,421000	0,701904	4,297180
0,422000	0,746765	4,999847
0,423000	0,692902	4,999847
0,424000	0,763397	4,999847
0,425000	0,713196	4,999847
0,426000	0,792236	4,999847
0,427000	0,730438	4,999847
0,428000	0,815430	4,999847
0,429000	0,750580	4,001923
0,430000	0,810547	3,117065
0,431000	0,749207	3,569031
0,432000	0,781250	4,039612
0,433000	0,758362	4,999847
0,434000	0,759125	4,999847
0,435000	0,767517	4,999847
0,436000	0,744781	4,999847
0,437000	0,785217	4,999847
0,438000	0,735016	4,463348
0,439000	0,797424	3,707886
0,440000	0,689240	3,766479
0,441000	0,794830	3,928070
0,442000	0,699768	4,999847
0,443000	0,810089	4,999847
0,444000	0,758820	4,999847
0,445000	0,827332	4,999847
0,446000	0,776978	4,999847
0,447000	0,810242	4,999847
0,448000	0,791016	4,874115
0,449000	0,794525	3,975220
0,450000	0,800018	2,735748
0,451000	0,746307	4,152069
0,452000	0,799103	4,753265
0,453000	0,725250	4,999847
0,454000	0,810242	4,999847
0,455000	0,711212	4,999847
0,456000	0,823517	4,999847
0,457000	0,733490	4,999847
0,458000	0,824432	4,070892
0,459000	0,752411	3,367462
0,460000	0,802460	2,314911
0,461000	0,769196	4,097290
0,462000	0,784149	4,999847
0,463000	0,786438	4,999847
0,464000	0,767059	4,999847
0,465000	0,802612	4,999847
0,466000	0,770569	4,999847
0,467000	0,830383	4,947510
0,468000	0,774536	4,999847
0,469000	0,848236	4,196014
0,470000	0,767670	3,749237
0,471000	0,854187	3,852539
0,472000	0,780182	4,990234
0,473000	0,852814	4,999847
0,474000	0,798187	4,999847
0,475000	0,846558	4,999847
0,476000	0,817108	4,999847
0,477000	0,825958	4,999847
0,478000	0,830688	4,424744
0,479000	0,809631	2,826843
0,480000	0,842590	3,648529
0,481000	0,776978	4,815979
0,482000	0,845490	4,999847
0,483000	0,765686	4,999847
0,484000	0,853119	4,999847
0,485000	0,770569	4,999847
0,486000	0,856934	4,999847
0,487000	0,799408	4,999847
0,488000	0,851135	4,849854
0,489000	0,804596	3,919220
0,490000	0,836334	4,594879
0,491000	0,823975	3,200684
0,492000	0,818634	4,813080
0,493000	0,839386	4,999847
0,494000	0,786896	4,999847
0,495000	0,843964	4,999847
0,496000	0,763092	4,999847
0,497000	0,850372	4,999847
0,498000	0,751495	4,852753
0,499000	0,855560	3,604126
0,500000	0,769348	2,923431
0,501000	0,851440	4,945374
0,502000	0,788422	4,999847
0,503000	0,832825	4,999847
0,504000	0,808716	4,999847
0,505000	0,807343	4,999847
0,506000	0,787659	4,999847
0,507000	0,778961	4,999847
0,508000	0,827789	4,693146
0,509000	0,785065	3,822784
0,510000	0,852051	2,783356
0,511000	0,771332	4,470062
0,512000	0,856628	4,564362
0,513000	0,756683	4,999847
0,514000	0,683441	4,999847
0,515000	0,649567	4,999847
0,516000	0,634155	4,999847
0,517000	0,627136	4,999847
0,518000	0,623627	4,647675
0,519000	0,622101	3,401031
0,520000	0,621490	4,721222
0,521000	0,620728	4,198303
0,522000	0,620270	4,999847
0,523000	0,620117	4,999847
0,524000	0,620270	4,999847
0,525000	0,621490	4,999847
0,526000	0,620728	4,999847
0,527000	0,620117	4,999847
0,528000	0,619812	4,554596
0,529000	0,619965	4,571991
0,530000	0,619659	3,174896
0,531000	0,619659	3,484650
0,532000	0,619812	3,892822
0,533000	0,620117	4,999847
0,534000	0,620575	4,999847
0,535000	0,596924	4,999847
0,536000	0,584717	4,999847
0,537000	0,582733	4,999847
0,538000	0,578918	4,773254
0,539000	0,576019	3,310394
0,540000	0,575714	4,018097
0,541000	0,576172	4,999847
0,542000	0,576019	4,686584
0,543000	0,576324	4,999847
0,544000	0,576172	4,999847
0,545000	0,571747	4,999847
0,546000	0,568390	4,999847
0,547000	0,566101	4,999847
0,548000	0,568085	4,999847
0,549000	0,567932	3,435364
0,550000	0,566101	3,873138
0,551000	0,566559	4,457703
0,552000	0,507812	4,128265
0,553000	0,535583	4,999847
0,554000	0,549011	4,999847
0,555000	0,557404	4,999847
0,556000	0,562134	4,999847
0,557000	0,552979	4,999847
0,558000	0,561523	4,982147
0,559000	0,563354	2,819977
0,560000	0,564880	4,111938
0,561000	0,568848	3,947296
0,562000	0,565186	4,579773
0,563000	0,544281	4,999847
0,564000	0,541382	4,999847
0,565000	0,540009	4,999847
0,566000	0,542145	4,999847
0,567000	0,538940	4,999847
0,568000	0,542450	4,600983
0,569000	0,544281	4,439850
0,570000	0,545654	4,885406
0,571000	0,544739	3,726044
0,572000	0,545197	2,855072
0,573000	0,544434	4,999847
0,574000	0,543365	4,999847
0,575000	0,544891	4,999847
0,576000	0,546722	4,999847
0,577000	0,548553	4,999847
0,578000	0,547943	4,647827
0,579000	0,550842	3,531342
0,580000	0,549316	3,391724
0,581000	0,548096	4,999847
0,582000	0,546570	4,999847
0,583000	0,539398	4,999847
0,584000	0,549774	4,999847
0,585000	0,561981	4,999847
0,586000	0,567169	4,999847
0,587000	0,567780	4,999847
0,588000	0,574036	4,728394
0,589000	0,575256	3,839417
0,590000	0,575562	4,815369
0,591000	0,576630	3,665771
0,592000	0,572052	3,444061
0,593000	0,569153	4,999847
0,594000	0,563507	4,999847
0,595000	0,566406	4,999847
0,596000	0,566711	4,999847
0,597000	0,560608	4,999847
0,598000	0,560760	4,852142
0,599000	0,556793	3,093719
0,600000	0,560913	2,705231
0,601000	0,558929	3,902740
0,602000	0,560303	4,999847
0,603000	0,560608	4,999847
0,604000	0,556183	4,999847
0,605000	0,483398	4,999847
0,606000	0,513458	4,999847
0,607000	0,542603	4,999847
0,608000	0,524139	4,731903
0,609000	0,520325	4,357300
0,610000	0,530396	4,272461
0,611000	0,533447	2,970123
0,612000	0,536957	4,073029
0,613000	0,558319	4,999847
0,614000	0,570374	4,999847
0,615000	0,572357	4,999847
0,616000	0,570984	4,999847
0,617000	0,570526	4,999847
0,618000	0,562744	4,729919
0,619000	0,547791	2,553101
0,620000	0,542908	3,928986
0,621000	0,539093	4,344482
0,622000	0,539551	4,991455
0,623000	0,540771	4,999847
0,624000	0,542297	4,999847
0,625000	0,540771	4,999847
0,626000	0,540161	4,999847
0,627000	0,539093	4,999847
0,628000	0,541382	4,509277
0,629000	0,510712	3,609009
0,630000	0,513611	3,877716
0,631000	0,531158	3,826141
0,632000	0,540009	4,152679
0,633000	0,542450	4,999847
0,634000	0,542908	4,999847
0,635000	0,537262	4,999847
0,636000	0,537720	4,999847
0,637000	0,535583	4,999847
0,638000	0,538177	4,149323
0,639000	0,532837	3,755341
0,640000	0,534515	3,140411
0,641000	0,533447	4,379730
0,642000	0,540771	4,999847
0,643000	0,547180	4,999847
0,644000	0,562286	4,999847
0,645000	0,572357	4,999847
0,646000	0,573883	4,999847
0,647000	0,576019	4,999847
0,648000	0,575104	4,290924
0,649000	0,577545	3,969269
0,650000	0,573883	3,341370
0,651000	0,580292	4,055634
0,652000	0,576324	4,373779
0,653000	0,580292	4,999847
0,654000	0,577850	4,999847
0,655000	0,580292	4,999847
0,656000	0,578156	4,999847
0,657000	0,579376	4,999847
0,658000	0,576477	4,102783
0,659000	0,573120	3,154602
0,660000	0,574188	2,806854
0,661000	0,570984	4,098511
0,662000	0,572510	4,999847
0,663000	0,566101	4,999847
0,664000	0,572815	4,999847
0,665000	0,489349	4,999847
0,666000	0,542755	4,999847
0,667000	0,539551	4,999847
0,668000	0,563660	4,999847
0,669000	0,559692	3,889160
0,670000	0,569611	3,558044
0,671000	0,569305	2,911377
0,672000	0,571899	4,562073
0,673000	0,575562	4,999847
0,674000	0,572357	4,999847
0,675000	0,581665	4,999847
0,676000	0,585632	4,999847
0,677000	0,597382	4,999847
0,678000	0,589142	4,072723
0,679000	0,601196	2,816925
0,680000	0,590515	4,681549
0,681000	0,603943	3,824615
0,682000	0,593567	4,999847
0,683000	0,597534	4,999847
0,684000	0,585632	4,999847
0,685000	0,597839	4,999847
0,686000	0,599670	4,999847
0,687000	0,596466	4,999847
0,688000	0,597076	4,885101
0,689000	0,592346	4,105682
0,690000	0,601654	3,612823
0,691000	0,594788	3,410950
0,692000	0,609131	4,665680
0,693000	0,591278	4,999847
0,694000	0,609589	4,999847
0,695000	0,580139	4,999847
0,696000	0,606842	4,999847
0,697000	0,596924	4,999847
0,698000	0,609894	4,999847
0,699000	0,602722	3,899994
0,700000	0,600128	3,638611
0,701000	0,604248	4,590607
0,702000	0,598450	4,999847
0,703000	0,607147	4,999847
0,704000	0,595398	4,999847
0,705000	0,610809	4,999847
0,706000	0,584717	4,999847
0,707000	0,613403	4,999847
0,708000	0,581055	4,999847
0,709000	0,618286	4,516449
0,710000	0,578613	2,645264
0,711000	0,579529	3,831940
0,712000	0,575409	4,669952
0,713000	0,599976	4,999847
0,714000	0,597992	4,999847
0,715000	0,599518	4,999847
0,716000	0,610046	4,999847
0,717000	0,611725	4,999847
0,718000	0,626678	4,967499
0,719000	0,615082	3,996429
0,720000	0,635376	2,726135
0,721000	0,540924	4,949341
0,722000	0,599518	4,999847
0,723000	0,596161	4,999847
0,724000	0,637512	4,999847
0,725000	0,614777	4,999847
0,726000	0,637970	4,999847
0,727000	0,620422	4,999847
0,728000	0,625305	4,999847
0,729000	0,617218	4,060059
0,730000	0,614777	2,842102
0,731000	0,622864	4,091644
0,732000	0,608063	4,439850
0,733000	0,630188	4,999847
0,734000	0,601807	4,999847
0,735000	0,636902	4,999847
0,736000	0,597382	4,999847
0,737000	0,644684	4,999847
0,738000	0,594940	4,720764
0,739000	0,642853	4,272003
0,740000	0,603333	2,566833
0,741000	0,634155	4,630737
0,742000	0,618591	4,999847
0,743000	0,627747	4,999847
0,744000	0,625763	4,999847
0,745000	0,623016	4,999847
0,746000	0,637817	4,999847
0,747000	0,618286	4,999847
0,748000	0,647430	4,766083
0,749000	0,610504	3,974304
0,750000	0,652771	3,860474
0,751000	0,602570	2,957153
0,752000	0,658417	4,786224
0,753000	0,581055	4,999847
0,754000	0,642548	4,999847
0,755000	0,614014	4,999847
0,756000	0,640564	4,999847
0,757000	0,630493	4,999847
0,758000	0,638580	4,897156
0,759000	0,642548	3,272858
0,760000	0,629425	2,130890
0,761000	0,651093	4,999847
0,762000	0,623779	4,676361
0,763000	0,661316	4,999847
0,764000	0,618591	4,999847
0,765000	0,669861	4,999847
0,766000	0,617523	4,999847
0,767000	0,679626	4,999847
0,768000	0,627441	4,999847
0,769000	0,669250	4,332123
0,770000	0,638580	4,999847
0,771000	0,659637	3,995667
0,772000	0,650787	4,630432
0,773000	0,652618	4,999847
0,774000	0,663757	4,999847
0,775000	0,648956	4,999847
0,776000	0,674591	4,999847
0,777000	0,641174	4,721527
0,778000	0,682831	4,722137
0,779000	0,635376	3,225861
0,780000	0,691376	3,260193
0,781000	0,630035	4,999847
0,782000	0,597839	4,999847
0,783000	0,585022	4,999847
0,784000	0,589142	4,999847
0,785000	0,654144	4,999847
0,786000	0,623474	4,999847
0,787000	0,670319	4,999847
0,788000	0,657806	4,999847
0,789000	0,668945	3,920593
0,790000	0,674438	2,676697
0,791000	0,662994	4,487305
0,792000	0,685120	4,819489
0,793000	0,658112	4,999847
0,794000	0,696411	4,999847
0,795000	0,651245	4,999847
0,796000	0,705414	4,999847
0,797000	0,628204	4,999847
0,798000	0,697937	4,698944
0,799000	0,640411	2,302094
0,800000	0,697937	2,583466
0,801000	0,661621	4,771118
0,802000	0,690613	4,999847
0,803000	0,678558	4,999847
0,804000	0,681915	4,999847
0,805000	0,689697	4,999847
0,806000	0,666351	4,999847
0,807000	0,698700	4,999847
0,808000	0,656281	4,992981
0,809000	0,708160	3,549957
0,810000	0,651245	4,237671
0,811000	0,719452	3,561554
0,812000	0,646515	4,141235
0,813000	0,689545	4,999847
0,814000	0,609741	4,999847
0,815000	0,681763	4,999847
0,816000	0,652161	4,999847
0,817000	0,678558	4,999847
0,818000	0,673523	4,575043
0,819000	0,660553	3,239441
0,820000	0,685120	4,823303
0,821000	0,654755	4,408569
0,822000	0,700684	4,818268
0,823000	0,642242	4,999847
0,824000	0,712585	4,999847
0,825000	0,634308	4,999847
0,826000	0,725403	4,999847
0,827000	0,635071	4,999847
0,828000	0,721130	4,999847
0,829000	0,654755	4,323578
0,830000	0,704346	1,782990
0,831000	0,672760	4,475250
0,832000	0,687561	4,999847
0,833000	0,688629	4,999847
0,834000	0,673218	4,999847
0,835000	0,704193	4,999847
0,836000	0,656281	4,999847
0,837000	0,715637	4,999847
0,838000	0,641632	4,999847
0,839000	0,728149	2,840576
0,840000	0,636292	2,532043
0,841000	0,743256	4,606628
0,842000	0,651245	4,999847
0,843000	0,731812	4,999847
0,844000	0,671692	4,999847
0,845000	0,715179	4,999847
0,846000	0,691681	4,999847
0,847000	0,698853	4,999847
0,848000	0,709229	4,999847
0,849000	0,686035	4,083557
0,850000	0,726318	4,232788
0,851000	0,674133	3,842926
0,852000	0,742035	4,486847
0,853000	0,662079	4,999847
0,854000	0,753632	4,999847
0,855000	0,652313	4,999847
0,856000	0,764465	4,999847
0,857000	0,674286	4,999847
0,858000	0,746765	4,936523
0,859000	0,694580	3,920288
0,860000	0,730286	2,755127
0,861000	0,715027	4,999847
0,862000	0,715179	4,777374
0,863000	0,731506	4,999847
0,864000	0,695343	4,999847
0,865000	0,742950	4,999847
0,866000	0,672302	4,999847
0,867000	0,755768	4,999847
0,868000	0,671234	4,913177
0,869000	0,773621	3,326721
0,870000	0,670776	3,196106
0,871000	0,778503	2,676849
0,872000	0,695801	4,260712
0,873000	0,762329	4,999847
0,874000	0,719910	4,999847
0,875000	0,765076	4,999847
0,876000	0,752411	4,999847
0,877000	0,755768	4,999847
0,878000	0,767822	4,506989
0,879000	0,738068	3,392792
0,880000	0,782928	4,187012
0,881000	0,721588	4,775238
0,882000	0,795135	4,999847
0,883000	0,716248	4,999847
0,884000	0,813751	4,999847
0,885000	0,721588	4,999847
0,886000	0,821991	4,999847
0,887000	0,742798	4,999847
0,888000	0,812836	4,999847
0,889000	0,764160	3,853607
0,890000	0,800781	2,785950
0,891000	0,780182	3,188782
0,892000	0,791016	4,999847
0,893000	0,804901	4,999847
0,894000	0,770416	4,999847
0,895000	0,816498	4,999847
0,896000	0,753937	4,999847
0,897000	0,829163	4,999847
0,898000	0,742645	4,999847
0,899000	0,842285	3,621674
0,900000	0,741577	3,376617
0,901000	0,843048	4,075012
0,902000	0,776062	4,999847
0,903000	0,835114	4,999847
0,904000	0,791321	4,999847
0,905000	0,799561	4,999847
0,906000	0,796661	4,999847
0,907000	0,771332	4,999847
0,908000	0,805206	4,999847
0,909000	0,732117	3,374786
0,910000	0,812225	2,756958
0,911000	0,752716	3,846893
0,912000	0,842285	4,692230
0,913000	0,747833	4,999847
0,914000	0,851440	4,999847
0,915000	0,753021	4,999847
0,916000	0,809326	4,999847
0,917000	0,762329	4,999847
0,918000	0,805359	4,999847
0,919000	0,789948	3,642120
0,920000	0,792389	2,822113
0,921000	0,810242	4,999847
0,922000	0,775452	4,999847
0,923000	0,827026	4,999847
0,924000	0,773621	4,999847
0,925000	0,846100	4,999847
0,926000	0,756378	4,999847
0,927000	0,853119	4,999847
0,928000	0,753326	4,999847
0,929000	0,855408	4,566498
0,930000	0,784607	4,043579
0,931000	0,844269	3,571167
0,932000	0,799713	3,997345
0,933000	0,824585	4,999847
0,934000	0,818329	4,999847
0,935000	0,815582	4,999847
0,936000	0,839081	4,999847
0,937000	0,792542	4,999847
0,938000	0,847626	4,147491
0,939000	0,769043	3,626556
0,940000	0,852814	2,383423
0,941000	0,752106	3,987579
0,942000	0,856018	4,999847
0,943000	0,767670	4,999847
0,944000	0,853271	4,999847
0,945000	0,791321	4,999847
0,946000	0,837402	4,999847
0,947000	0,812073	4,999847
0,948000	0,818176	4,807129
0,949000	0,830536	3,601532
0,950000	0,802460	4,501648
0,951000	0,705109	3,190002
0,952000	0,659637	4,999847
0,953000	0,638885	4,999847
0,954000	0,628815	4,999847
0,955000	0,624695	4,999847
0,956000	0,622253	4,999847
0,957000	0,621338	4,999847
0,958000	0,620575	4,419556
0,959000	0,620575	3,334656
0,960000	0,620422	3,182526
0,961000	0,619965	4,816895
0,962000	0,619659	4,999847
0,963000	0,620117	4,999847
0,964000	0,619354	4,999847
0,965000	0,619354	4,999847
0,966000	0,619354	4,999847
0,967000	0,619507	4,999847
0,968000	0,619354	4,999847
0,969000	0,619049	4,073639
0,970000	0,619202	3,123627
0,971000	0,618439	4,358673
0,972000	0,604858	4,539337
0,973000	0,581360	4,925690
0,974000	0,574036	4,999847
0,975000	0,569153	4,999847
0,976000	0,567932	4,999847
0,977000	0,551910	4,999847
0,978000	0,547943	4,999847
0,979000	0,553131	3,661652
0,980000	0,557404	2,098083
0,981000	0,560913	4,999847
0,982000	0,542450	4,999847
0,983000	0,542450	4,999847
0,984000	0,546570	4,999847
0,985000	0,550842	4,999847
0,986000	0,554657	4,999847
0,987000	0,549927	4,999847
0,988000	0,538635	4,688568
0,989000	0,532837	4,631195
0,990000	0,530701	3,806000
0,991000	0,530090	3,455963
0,992000	0,533142	3,972626
0,993000	0,532684	4,999847
0,994000	0,531769	4,999847
0,995000	0,530090	4,999847
0,996000	0,531769	4,999847
0,997000	0,530701	4,999847
0,998000	0,533752	4,999847
0,999000	0,531769	3,249817

