LabVIEW Measurement	
Writer_Version	2
Reader_Version	2
Separator	Tab
Decimal_Separator	,
Multi_Headings	Yes
X_Columns	One
Time_Pref	Absolute
Operator	d.nicolai
Date	2023/11/09
Time	16:04:05,6565121999996605588
***End_of_Header***	
	
Channels	2		
Samples	1000	1000	
Date	2023/11/09	2023/11/09	
Time	16:04:47,1375125999999292938	16:04:47,1375125999999292938	
Y_Unit_Label	Volts	Volts	
X_Dimension	Time	Time	
X0	0,0000000000000000E+0	0,0000000000000000E+0	
Delta_X	0,001000	0,001000	
***End_of_Header***			
X_Value	powebox	triggerbox	Comment
0,000000	0,585327	0,917511
0,001000	0,583191	4,471130
0,002000	0,581665	4,645996
0,003000	0,579376	4,999847
0,004000	0,573273	4,999847
0,005000	0,566254	4,999847
0,006000	0,563354	4,999847
0,007000	0,567932	4,999847
0,008000	0,573730	4,999847
0,009000	0,578461	4,318237
0,010000	0,579529	4,203949
0,011000	0,579376	4,999847
0,012000	0,579071	4,216766
0,013000	0,578156	4,999847
0,014000	0,570526	4,999847
0,015000	0,573273	4,999847
0,016000	0,572510	4,999847
0,017000	0,571594	4,999847
0,018000	0,573273	4,999847
0,019000	0,575714	3,320923
0,020000	0,576324	1,760101
0,021000	0,572968	4,212799
0,022000	0,573120	4,724579
0,023000	0,569763	4,999847
0,024000	0,564270	4,999847
0,025000	0,559998	4,999847
0,026000	0,550232	4,999847
0,027000	0,548859	4,999847
0,028000	0,552979	4,999847
0,029000	0,554504	4,174347
0,030000	0,556946	3,572845
0,031000	0,553436	4,562988
0,032000	0,551147	3,338013
0,033000	0,553436	4,999847
0,034000	0,556946	4,999847
0,035000	0,558777	4,999847
0,036000	0,560455	4,999847
0,037000	0,558472	4,999847
0,038000	0,560760	4,293365
0,039000	0,562592	2,403870
0,040000	0,562439	3,994293
0,041000	0,560608	3,363190
0,042000	0,563202	4,427032
0,043000	0,561676	4,999847
0,044000	0,560913	4,999847
0,045000	0,562439	4,999847
0,046000	0,537567	4,999847
0,047000	0,514832	4,999847
0,048000	0,534058	4,999847
0,049000	0,538177	3,990479
0,050000	0,535583	3,605652
0,051000	0,538330	2,805023
0,052000	0,541382	4,012756
0,053000	0,538788	4,999847
0,054000	0,537109	4,999847
0,055000	0,527802	4,999847
0,056000	0,522919	4,999847
0,057000	0,520630	4,999847
0,058000	0,520630	4,837494
0,059000	0,519409	3,589783
0,060000	0,520782	3,531799
0,061000	0,519714	3,923798
0,062000	0,523682	4,999847
0,063000	0,517426	4,999847
0,064000	0,521545	4,999847
0,065000	0,531158	4,999847
0,066000	0,534210	4,999847
0,067000	0,525208	4,999847
0,068000	0,526581	4,999847
0,069000	0,524445	4,294128
0,070000	0,528107	4,653320
0,071000	0,520477	2,828217
0,072000	0,521545	3,817291
0,073000	0,512390	4,999847
0,074000	0,516510	4,999847
0,075000	0,510559	4,999847
0,076000	0,522461	4,999847
0,077000	0,521088	4,999847
0,078000	0,525665	4,659271
0,079000	0,526733	3,297729
0,080000	0,534821	3,950806
0,081000	0,536652	4,214172
0,082000	0,534210	4,999847
0,083000	0,529938	4,999847
0,084000	0,492706	4,999847
0,085000	0,522766	4,999847
0,086000	0,538940	4,999847
0,087000	0,543518	4,999847
0,088000	0,541534	4,999847
0,089000	0,542450	3,965912
0,090000	0,539398	4,715881
0,091000	0,541992	4,163666
0,092000	0,540161	4,783325
0,093000	0,547028	4,999847
0,094000	0,547180	4,999847
0,095000	0,551453	4,999847
0,096000	0,555725	4,999847
0,097000	0,555725	4,999847
0,098000	0,555267	4,227600
0,099000	0,550842	2,924194
0,100000	0,555115	4,132233
0,101000	0,554352	3,760071
0,102000	0,559998	4,222870
0,103000	0,548248	4,999847
0,104000	0,554657	4,999847
0,105000	0,549164	4,999847
0,106000	0,555573	4,999847
0,107000	0,556793	4,999847
0,108000	0,560303	4,826660
0,109000	0,563812	4,137573
0,110000	0,570984	4,120941
0,111000	0,575562	3,936920
0,112000	0,579529	4,116364
0,113000	0,584412	4,999847
0,114000	0,583649	4,999847
0,115000	0,590668	4,999847
0,116000	0,588531	4,999847
0,117000	0,597534	4,999847
0,118000	0,595856	4,044647
0,119000	0,606995	3,088837
0,120000	0,608368	2,980957
0,121000	0,613098	4,169159
0,122000	0,610504	4,689178
0,123000	0,614624	4,999847
0,124000	0,615082	4,999847
0,125000	0,615540	4,999847
0,126000	0,620117	4,999847
0,127000	0,617828	4,999847
0,128000	0,626221	4,610901
0,129000	0,618744	4,087982
0,130000	0,625916	3,119202
0,131000	0,618591	4,684143
0,132000	0,626678	4,328308
0,133000	0,611115	4,999847
0,134000	0,611725	4,999847
0,135000	0,608368	4,999847
0,136000	0,612946	4,999847
0,137000	0,616302	4,999847
0,138000	0,613098	4,848022
0,139000	0,619965	3,194122
0,140000	0,621185	3,353882
0,141000	0,629730	3,406525
0,142000	0,624237	4,999847
0,143000	0,634308	4,999847
0,144000	0,624237	4,999847
0,145000	0,635834	4,999847
0,146000	0,624542	4,999847
0,147000	0,634766	4,999847
0,148000	0,625458	4,548035
0,149000	0,580292	4,683228
0,150000	0,592194	4,172668
0,151000	0,612946	3,201752
0,152000	0,620270	4,735260
0,153000	0,619659	4,999847
0,154000	0,626678	4,999847
0,155000	0,622559	4,999847
0,156000	0,635986	4,999847
0,157000	0,629730	4,999847
0,158000	0,644226	4,182434
0,159000	0,630341	3,197937
0,160000	0,650330	3,507996
0,161000	0,630798	3,449097
0,162000	0,642242	4,999847
0,163000	0,629120	4,999847
0,164000	0,636444	4,999847
0,165000	0,629578	4,999847
0,166000	0,630035	4,999847
0,167000	0,634155	4,999847
0,168000	0,627594	4,999847
0,169000	0,638428	4,241180
0,170000	0,623322	4,629059
0,171000	0,641785	3,954926
0,172000	0,620575	4,999847
0,173000	0,646515	4,999847
0,174000	0,615234	4,999847
0,175000	0,649261	4,999847
0,176000	0,622253	4,999847
0,177000	0,646667	4,999847
0,178000	0,633087	4,096375
0,179000	0,643768	4,264374
0,180000	0,644684	3,451996
0,181000	0,642242	3,707275
0,182000	0,649872	4,999847
0,183000	0,637970	4,999847
0,184000	0,654144	4,999847
0,185000	0,636292	4,999847
0,186000	0,662079	4,999847
0,187000	0,633240	4,999847
0,188000	0,667267	4,999847
0,189000	0,631561	4,218750
0,190000	0,665741	3,864288
0,191000	0,645142	3,521881
0,192000	0,663910	4,500885
0,193000	0,651093	4,999847
0,194000	0,657654	4,999847
0,195000	0,658264	4,999847
0,196000	0,658569	4,999847
0,197000	0,670929	4,999847
0,198000	0,653839	4,999847
0,199000	0,675354	3,725739
0,200000	0,649261	2,298584
0,201000	0,680695	4,999847
0,202000	0,644379	4,533997
0,203000	0,685730	4,999847
0,204000	0,640411	4,999847
0,205000	0,677490	4,999847
0,206000	0,652466	4,999847
0,207000	0,671692	4,999847
0,208000	0,661926	4,701996
0,209000	0,662231	4,646759
0,210000	0,665436	3,334198
0,211000	0,653839	4,673462
0,212000	0,675354	3,694763
0,213000	0,644073	4,999847
0,214000	0,679321	4,999847
0,215000	0,640411	4,999847
0,216000	0,689087	4,999847
0,217000	0,641632	4,999847
0,218000	0,695343	4,916534
0,219000	0,651398	3,564911
0,220000	0,688477	2,580414
0,221000	0,662537	4,653168
0,222000	0,679169	4,999847
0,223000	0,672913	4,999847
0,224000	0,672760	4,999847
0,225000	0,684814	4,999847
0,226000	0,668488	4,999847
0,227000	0,694275	4,999847
0,228000	0,665283	4,999847
0,229000	0,704041	4,010162
0,230000	0,657043	4,011688
0,231000	0,708771	3,693085
0,232000	0,650940	4,402924
0,233000	0,706177	4,999847
0,234000	0,655365	4,999847
0,235000	0,691376	4,999847
0,236000	0,670624	4,999847
0,237000	0,682678	4,999847
0,238000	0,680542	4,783173
0,239000	0,674286	2,937164
0,240000	0,690918	4,102936
0,241000	0,659332	3,576355
0,242000	0,695343	4,999847
0,243000	0,655365	4,999847
0,244000	0,708923	4,999847
0,245000	0,652008	4,999847
0,246000	0,719299	4,999847
0,247000	0,647430	4,999847
0,248000	0,706024	4,999847
0,249000	0,662231	3,609924
0,250000	0,693817	3,922577
0,251000	0,651550	3,654175
0,252000	0,662994	4,488983
0,253000	0,683899	4,999847
0,254000	0,675201	4,999847
0,255000	0,704041	4,999847
0,256000	0,661469	4,999847
0,257000	0,711365	4,999847
0,258000	0,656738	4,901886
0,259000	0,724030	3,746490
0,260000	0,649872	3,857727
0,261000	0,732880	3,617096
0,262000	0,665588	4,999847
0,263000	0,716553	4,999847
0,264000	0,672760	4,999847
0,265000	0,705414	4,999847
0,266000	0,694733	4,999847
0,267000	0,691223	4,999847
0,268000	0,700684	4,999847
0,269000	0,679626	3,907318
0,270000	0,719452	3,338013
0,271000	0,675964	3,209076
0,272000	0,732880	2,692719
0,273000	0,662384	4,999847
0,274000	0,740509	4,999847
0,275000	0,657043	4,999847
0,276000	0,745392	4,999847
0,277000	0,677948	4,999847
0,278000	0,733185	4,999847
0,279000	0,698395	2,893372
0,280000	0,715790	2,654419
0,281000	0,704041	4,999847
0,282000	0,699005	4,999847
0,283000	0,720673	4,999847
0,284000	0,684967	4,999847
0,285000	0,733337	4,999847
0,286000	0,665894	4,999847
0,287000	0,742187	4,999847
0,288000	0,651550	4,999847
0,289000	0,753021	3,524170
0,290000	0,650787	3,632355
0,291000	0,741882	3,403473
0,292000	0,671082	3,089600
0,293000	0,718231	4,999847
0,294000	0,687714	4,999847
0,295000	0,703583	4,999847
0,296000	0,708313	4,999847
0,297000	0,689087	4,999847
0,298000	0,727081	4,384766
0,299000	0,682678	3,216400
0,300000	0,746613	4,635773
0,301000	0,680389	2,979889
0,302000	0,765686	4,105835
0,303000	0,675049	4,999847
0,304000	0,779877	4,999847
0,305000	0,682220	4,999847
0,306000	0,761414	4,999847
0,307000	0,699158	4,999847
0,308000	0,743561	4,999847
0,309000	0,722351	3,953552
0,310000	0,736389	3,111267
0,311000	0,747070	4,640045
0,312000	0,726776	3,879547
0,313000	0,764618	4,999847
0,314000	0,711975	4,999847
0,315000	0,777283	4,999847
0,316000	0,696716	4,999847
0,317000	0,789490	4,999847
0,318000	0,685272	4,999847
0,319000	0,799255	3,451843
0,320000	0,707092	4,121246
0,321000	0,783081	3,780518
0,322000	0,731049	4,216309
0,323000	0,768890	4,999847
0,324000	0,750732	4,999847
0,325000	0,748596	4,999847
0,326000	0,765533	4,999847
0,327000	0,731354	4,999847
0,328000	0,781250	4,999847
0,329000	0,715179	4,221039
0,330000	0,794525	3,582001
0,331000	0,704651	4,506378
0,332000	0,809174	3,423615
0,333000	0,701752	4,999847
0,334000	0,809784	4,999847
0,335000	0,725861	4,999847
0,336000	0,791016	4,999847
0,337000	0,748749	4,999847
0,338000	0,774231	4,498138
0,339000	0,768433	3,410797
0,340000	0,757294	3,597717
0,341000	0,785828	4,436493
0,342000	0,744476	4,999847
0,343000	0,803833	4,999847
0,344000	0,734406	4,999847
0,345000	0,821075	4,999847
0,346000	0,725708	4,999847
0,347000	0,837708	4,999847
0,348000	0,730743	4,999847
0,349000	0,830231	3,475342
0,350000	0,756073	4,107666
0,351000	0,820312	2,514191
0,352000	0,780792	3,547974
0,353000	0,806732	4,999847
0,354000	0,755463	4,999847
0,355000	0,763855	4,999847
0,356000	0,803986	4,999847
0,357000	0,741272	4,999847
0,358000	0,816498	4,776306
0,359000	0,728302	3,601227
0,360000	0,831757	3,549957
0,361000	0,717163	3,441315
0,362000	0,829315	4,999847
0,363000	0,741425	4,999847
0,364000	0,811005	4,999847
0,365000	0,764923	4,999847
0,366000	0,795288	4,999847
0,367000	0,785675	4,999847
0,368000	0,780487	4,999847
0,369000	0,735474	3,813629
0,370000	0,744934	4,194183
0,371000	0,749359	3,478088
0,372000	0,750732	4,263000
0,373000	0,858307	4,999847
0,374000	0,753632	4,999847
0,375000	0,830688	4,999847
0,376000	0,771942	4,999847
0,377000	0,811462	4,999847
0,378000	0,792084	4,408875
0,379000	0,795288	3,615570
0,380000	0,811462	3,690338
0,381000	0,780945	4,024811
0,382000	0,830841	4,999847
0,383000	0,768738	4,999847
0,384000	0,848846	4,999847
0,385000	0,757446	4,999847
0,386000	0,865479	4,999847
0,387000	0,748138	4,999847
0,388000	0,858459	4,671021
0,389000	0,772705	4,805450
0,390000	0,840302	3,386383
0,391000	0,795288	4,037933
0,392000	0,823975	3,829193
0,393000	0,815887	4,999847
0,394000	0,808258	4,999847
0,395000	0,835876	4,999847
0,396000	0,793915	4,999847
0,397000	0,854950	4,999847
0,398000	0,780487	3,818512
0,399000	0,871735	3,309784
0,400000	0,768127	3,017883
0,401000	0,884247	4,715729
0,402000	0,769501	4,384918
0,403000	0,864410	4,999847
0,404000	0,792999	4,999847
0,405000	0,845947	4,999847
0,406000	0,815277	4,999847
0,407000	0,829315	4,999847
0,408000	0,836182	4,617462
0,409000	0,813751	4,571533
0,410000	0,855865	4,242401
0,411000	0,799713	4,377899
0,412000	0,873718	4,395142
0,413000	0,785370	4,999847
0,414000	0,884857	4,999847
0,415000	0,772858	4,999847
0,416000	0,707855	4,999847
0,417000	0,678101	4,999847
0,418000	0,665131	4,999847
0,419000	0,658569	3,872833
0,420000	0,632935	4,181061
0,421000	0,638580	4,464111
0,422000	0,645905	4,999847
0,423000	0,648804	4,999847
0,424000	0,649719	4,999847
0,425000	0,651245	4,999847
0,426000	0,640259	4,999847
0,427000	0,642853	4,999847
0,428000	0,622101	4,999847
0,429000	0,638733	4,304199
0,430000	0,646210	4,088287
0,431000	0,649719	4,179535
0,432000	0,651093	3,493805
0,433000	0,651550	4,999847
0,434000	0,652008	4,999847
0,435000	0,651703	4,999847
0,436000	0,578003	4,999847
0,437000	0,487518	4,999847
0,438000	0,478210	4,489288
0,439000	0,500946	3,472748
0,440000	0,509796	3,143616
0,441000	0,516968	4,151001
0,442000	0,518341	4,194489
0,443000	0,517883	4,999847
0,444000	0,517731	4,999847
0,445000	0,517578	4,999847
0,446000	0,513763	4,999847
0,447000	0,516052	4,999847
0,448000	0,514374	4,674072
0,449000	0,513611	4,687195
0,450000	0,511322	2,289429
0,451000	0,510559	4,507599
0,452000	0,514832	4,547882
0,453000	0,517120	4,999847
0,454000	0,520325	4,999847
0,455000	0,517120	4,999847
0,456000	0,471954	4,999847
0,457000	0,475006	4,999847
0,458000	0,495300	4,436951
0,459000	0,499115	3,785095
0,460000	0,506744	4,309082
0,461000	0,507355	3,246918
0,462000	0,507507	4,999847
0,463000	0,502777	4,999847
0,464000	0,501404	4,999847
0,465000	0,501862	4,999847
0,466000	0,502319	4,999847
0,467000	0,508575	4,999847
0,468000	0,512543	4,999847
0,469000	0,516510	4,561615
0,470000	0,518494	3,115692
0,471000	0,524750	4,603119
0,472000	0,526123	4,860687
0,473000	0,536041	4,999847
0,474000	0,526886	4,999847
0,475000	0,530701	4,999847
0,476000	0,523224	4,999847
0,477000	0,534668	4,999847
0,478000	0,537872	4,999847
0,479000	0,544128	3,864441
0,480000	0,540314	2,370453
0,481000	0,539246	4,306183
0,482000	0,540771	4,462433
0,483000	0,536346	4,999847
0,484000	0,539398	4,999847
0,485000	0,541382	4,999847
0,486000	0,548706	4,999847
0,487000	0,546417	4,999847
0,488000	0,549316	4,999847
0,489000	0,545044	3,966522
0,490000	0,541840	3,236084
0,491000	0,543518	4,565430
0,492000	0,549316	3,932190
0,493000	0,552368	4,769897
0,494000	0,555573	4,999847
0,495000	0,551910	4,999847
0,496000	0,549164	4,999847
0,497000	0,551605	4,999847
0,498000	0,547791	4,999847
0,499000	0,538788	3,632507
0,500000	0,538330	2,949524
0,501000	0,545807	4,452667
0,502000	0,540619	4,829865
0,503000	0,543671	4,999847
0,504000	0,541992	4,999847
0,505000	0,543671	4,999847
0,506000	0,541840	4,999847
0,507000	0,543213	4,999847
0,508000	0,531158	4,999847
0,509000	0,526123	3,924866
0,510000	0,526428	3,106537
0,511000	0,525665	4,887848
0,512000	0,522156	3,303528
0,513000	0,521851	4,727936
0,514000	0,523376	4,999847
0,515000	0,526886	4,999847
0,516000	0,524139	4,999847
0,517000	0,532074	4,999847
0,518000	0,540619	4,999847
0,519000	0,545349	3,181458
0,520000	0,554962	3,022614
0,521000	0,553589	3,686981
0,522000	0,552979	4,767303
0,523000	0,553741	4,999847
0,524000	0,546570	4,999847
0,525000	0,536652	4,999847
0,526000	0,538788	4,999847
0,527000	0,542755	4,999847
0,528000	0,549927	4,902802
0,529000	0,560150	3,661804
0,530000	0,570526	2,277985
0,531000	0,569153	4,829865
0,532000	0,570221	3,401947
0,533000	0,567627	4,999847
0,534000	0,566254	4,999847
0,535000	0,558319	4,999847
0,536000	0,559998	4,999847
0,537000	0,559692	4,999847
0,538000	0,563202	4,999847
0,539000	0,565186	3,573151
0,540000	0,574341	3,477325
0,541000	0,578918	4,999847
0,542000	0,583496	4,902496
0,543000	0,584259	4,999847
0,544000	0,579681	4,999847
0,545000	0,584259	4,999847
0,546000	0,578613	4,999847
0,547000	0,584869	4,999847
0,548000	0,577087	4,999847
0,549000	0,581970	3,978729
0,550000	0,575409	3,682404
0,551000	0,574341	3,702087
0,552000	0,568695	2,891998
0,553000	0,568085	4,999847
0,554000	0,569305	4,999847
0,555000	0,566864	4,999847
0,556000	0,575104	4,999847
0,557000	0,567932	4,999847
0,558000	0,568085	4,752045
0,559000	0,546722	3,631439
0,560000	0,576935	2,742157
0,561000	0,576630	4,541626
0,562000	0,593414	4,999847
0,563000	0,587921	4,999847
0,564000	0,594025	4,999847
0,565000	0,586243	4,999847
0,566000	0,590363	4,999847
0,567000	0,587616	4,999847
0,568000	0,580597	4,999847
0,569000	0,586700	4,525299
0,570000	0,577087	2,606964
0,571000	0,591125	4,962769
0,572000	0,571289	2,598877
0,573000	0,593719	4,999847
0,574000	0,571899	4,999847
0,575000	0,600739	4,999847
0,576000	0,586395	4,999847
0,577000	0,613251	4,999847
0,578000	0,600586	4,999847
0,579000	0,614471	3,536835
0,580000	0,607300	3,860168
0,581000	0,607605	4,342041
0,582000	0,611267	4,337921
0,583000	0,607910	4,999847
0,584000	0,618134	4,999847
0,585000	0,604401	4,999847
0,586000	0,623474	4,999847
0,587000	0,602112	4,999847
0,588000	0,628204	4,999847
0,589000	0,597229	4,237518
0,590000	0,632477	3,693237
0,591000	0,599213	4,205475
0,592000	0,627747	4,003601
0,593000	0,608673	4,999847
0,594000	0,622101	4,999847
0,595000	0,615997	4,999847
0,596000	0,616150	4,999847
0,597000	0,623779	4,999847
0,598000	0,618134	4,999847
0,599000	0,633698	3,834229
0,600000	0,611572	2,402954
0,601000	0,637665	4,703369
0,602000	0,614319	4,999847
0,603000	0,647888	4,999847
0,604000	0,595551	4,999847
0,605000	0,642853	4,999847
0,606000	0,618744	4,999847
0,607000	0,644531	4,999847
0,608000	0,628510	4,999847
0,609000	0,635834	4,148407
0,610000	0,627899	4,063263
0,611000	0,630493	3,036804
0,612000	0,642853	3,605652
0,613000	0,633698	4,999847
0,614000	0,654144	4,999847
0,615000	0,630951	4,999847
0,616000	0,661469	4,999847
0,617000	0,619354	4,999847
0,618000	0,664062	4,999847
0,619000	0,615540	3,592377
0,620000	0,659790	4,999847
0,621000	0,615692	3,874207
0,622000	0,643311	4,556427
0,623000	0,623474	4,999847
0,624000	0,634460	4,999847
0,625000	0,637665	4,999847
0,626000	0,629272	4,999847
0,627000	0,646515	4,999847
0,628000	0,615082	4,999847
0,629000	0,650330	4,751434
0,630000	0,601959	4,049225
0,631000	0,657959	4,273224
0,632000	0,593567	3,533325
0,633000	0,665588	4,999847
0,634000	0,600281	4,999847
0,635000	0,657806	4,999847
0,636000	0,620575	4,999847
0,637000	0,648193	4,999847
0,638000	0,636749	4,283447
0,639000	0,630646	4,071960
0,640000	0,638733	3,973083
0,641000	0,619049	4,179230
0,642000	0,650024	4,858093
0,643000	0,602570	4,999847
0,644000	0,654297	4,999847
0,645000	0,605316	4,999847
0,646000	0,674896	4,999847
0,647000	0,605927	4,999847
0,648000	0,681000	4,999847
0,649000	0,617371	4,319153
0,650000	0,670929	3,592987
0,651000	0,637970	3,451691
0,652000	0,662689	3,282471
0,653000	0,655975	4,999847
0,654000	0,657806	4,999847
0,655000	0,671234	4,999847
0,656000	0,646210	4,999847
0,657000	0,680695	4,999847
0,658000	0,635376	4,201660
0,659000	0,688934	3,488007
0,660000	0,617218	3,897552
0,661000	0,648804	3,149567
0,662000	0,579987	4,930420
0,663000	0,676270	4,999847
0,664000	0,627594	4,999847
0,665000	0,679626	4,999847
0,666000	0,657349	4,999847
0,667000	0,671539	4,999847
0,668000	0,667267	4,999847
0,669000	0,660858	4,132690
0,670000	0,685425	3,411407
0,671000	0,626984	4,549561
0,672000	0,666809	3,200531
0,673000	0,611267	4,999847
0,674000	0,676880	4,999847
0,675000	0,605621	4,999847
0,676000	0,692749	4,999847
0,677000	0,610504	4,999847
0,678000	0,679779	4,999847
0,679000	0,632019	3,238220
0,680000	0,668335	4,290314
0,681000	0,648804	2,744904
0,682000	0,649109	4,999847
0,683000	0,658722	4,999847
0,684000	0,645294	4,999847
0,685000	0,679474	4,999847
0,686000	0,630646	4,999847
0,687000	0,687408	4,999847
0,688000	0,619965	4,841156
0,689000	0,699768	4,221802
0,690000	0,597534	3,141327
0,691000	0,699310	3,857574
0,692000	0,613098	3,899536
0,693000	0,682068	4,999847
0,694000	0,633698	4,999847
0,695000	0,666046	4,999847
0,696000	0,656433	4,999847
0,697000	0,660706	4,999847
0,698000	0,679474	4,999847
0,699000	0,648499	3,449860
0,700000	0,692291	3,444977
0,701000	0,636139	3,844910
0,702000	0,706329	4,999847
0,703000	0,622711	4,999847
0,704000	0,718231	4,999847
0,705000	0,615234	4,999847
0,706000	0,713196	4,999847
0,707000	0,633392	4,999847
0,708000	0,692596	4,999847
0,709000	0,653534	4,999847
0,710000	0,679474	3,228912
0,711000	0,677490	4,449158
0,712000	0,670319	3,560791
0,713000	0,699158	4,775085
0,714000	0,665283	4,999847
0,715000	0,718384	4,999847
0,716000	0,649414	4,999847
0,717000	0,727997	4,999847
0,718000	0,629272	4,781799
0,719000	0,736542	3,450317
0,720000	0,631104	4,237366
0,721000	0,722198	2,942352
0,722000	0,655518	4,999847
0,723000	0,706024	4,999847
0,724000	0,677185	4,999847
0,725000	0,690460	4,999847
0,726000	0,697174	4,999847
0,727000	0,677185	4,999847
0,728000	0,715942	4,864960
0,729000	0,663910	4,373779
0,730000	0,730286	2,635345
0,731000	0,653076	4,959564
0,732000	0,745239	4,255066
0,733000	0,641479	4,999847
0,734000	0,754852	4,999847
0,735000	0,655060	4,999847
0,736000	0,737610	4,999847
0,737000	0,679321	4,999847
0,738000	0,717926	4,999847
0,739000	0,698853	3,653717
0,740000	0,702057	3,323212
0,741000	0,719452	3,286285
0,742000	0,695038	4,999847
0,743000	0,741119	4,999847
0,744000	0,682678	4,999847
0,745000	0,757446	4,999847
0,746000	0,676575	4,999847
0,747000	0,774536	4,999847
0,748000	0,665588	4,999847
0,749000	0,782013	4,509888
0,750000	0,687866	2,947388
0,751000	0,761566	4,291382
0,752000	0,711365	4,034729
0,753000	0,742340	4,999847
0,754000	0,730896	4,999847
0,755000	0,727081	4,999847
0,756000	0,748901	4,999847
0,757000	0,712738	4,999847
0,758000	0,766144	4,999847
0,759000	0,704346	3,397675
0,760000	0,784760	2,523956
0,761000	0,690002	3,530579
0,762000	0,796356	4,999847
0,763000	0,658722	4,999847
0,764000	0,760803	4,999847
0,765000	0,697632	4,999847
0,766000	0,773315	4,999847
0,767000	0,734558	4,999847
0,768000	0,758209	4,999847
0,769000	0,755920	4,561615
0,770000	0,740356	3,831482
0,771000	0,772858	3,867798
0,772000	0,725555	3,901672
0,773000	0,788727	4,999847
0,774000	0,711365	4,999847
0,775000	0,802612	4,999847
0,776000	0,700836	4,999847
0,777000	0,817871	4,999847
0,778000	0,712280	4,999847
0,779000	0,803528	3,601379
0,780000	0,736084	3,150635
0,781000	0,788727	4,420471
0,782000	0,759430	4,641418
0,783000	0,774078	4,999847
0,784000	0,780334	4,999847
0,785000	0,758972	4,999847
0,786000	0,798798	4,999847
0,787000	0,751343	4,999847
0,788000	0,818329	4,999847
0,789000	0,740204	4,271698
0,790000	0,835724	4,015808
0,791000	0,727234	2,926331
0,792000	0,849457	4,163361
0,793000	0,749817	4,999847
0,794000	0,834503	4,999847
0,795000	0,770569	4,999847
0,796000	0,815582	4,999847
0,797000	0,790405	4,999847
0,798000	0,795898	4,999847
0,799000	0,807953	4,304199
0,800000	0,780182	4,114532
0,801000	0,826416	3,807526
0,802000	0,764618	4,043732
0,803000	0,843353	4,999847
0,804000	0,754700	4,999847
0,805000	0,860443	4,999847
0,806000	0,747223	4,999847
0,807000	0,748901	4,999847
0,808000	0,749817	4,999847
0,809000	0,749969	4,293671
0,810000	0,814209	4,706421
0,811000	0,802765	3,676453
0,812000	0,829315	2,806854
0,813000	0,788727	4,612732
0,814000	0,847473	4,999847
0,815000	0,769348	4,999847
0,816000	0,861664	4,999847
0,817000	0,756378	4,999847
0,818000	0,875397	4,999847
0,819000	0,771484	3,595581
0,820000	0,869751	2,399139
0,821000	0,794830	4,665375
0,822000	0,851288	4,779358
0,823000	0,816040	4,999847
0,824000	0,829315	4,999847
0,825000	0,833893	4,999847
0,826000	0,812683	4,999847
0,827000	0,852356	4,999847
0,828000	0,796204	4,999847
0,829000	0,868835	3,081360
0,830000	0,775452	3,788757
0,831000	0,879211	4,501343
0,832000	0,763092	3,244476
0,833000	0,881653	4,999847
0,834000	0,785828	4,999847
0,835000	0,862885	4,999847
0,836000	0,809021	4,999847
0,837000	0,842438	4,999847
0,838000	0,829163	4,675140
0,839000	0,823059	3,110046
0,840000	0,846252	3,157196
0,841000	0,802307	3,818970
0,842000	0,862122	4,999847
0,843000	0,787048	4,999847
0,844000	0,876312	4,999847
0,845000	0,773773	4,999847
0,846000	0,887146	4,999847
0,847000	0,771942	4,999847
0,848000	0,867920	4,871063
0,849000	0,795593	4,634094
0,850000	0,848999	3,451843
0,851000	0,818024	4,999847
0,852000	0,832214	3,574371
0,853000	0,735931	4,999847
0,854000	0,691071	4,999847
0,855000	0,670471	4,999847
0,856000	0,661316	4,999847
0,857000	0,656891	4,999847
0,858000	0,654144	4,403381
0,859000	0,652924	3,283234
0,860000	0,650940	3,800201
0,861000	0,649567	3,160858
0,862000	0,649261	4,410095
0,863000	0,648651	4,999847
0,864000	0,648346	4,999847
0,865000	0,647430	4,999847
0,866000	0,610504	4,999847
0,867000	0,608215	4,999847
0,868000	0,629272	4,323578
0,869000	0,638885	4,202881
0,870000	0,642700	2,987366
0,871000	0,644684	4,808502
0,872000	0,645752	3,096466
0,873000	0,646515	4,999847
0,874000	0,587769	4,999847
0,875000	0,568085	4,999847
0,876000	0,563965	4,999847
0,877000	0,562744	4,999847
0,878000	0,563202	4,671021
0,879000	0,560913	3,977966
0,880000	0,554657	4,162445
0,881000	0,540771	4,365997
0,882000	0,537872	4,999847
0,883000	0,540009	4,999847
0,884000	0,533142	4,999847
0,885000	0,539093	4,999847
0,886000	0,541840	4,999847
0,887000	0,536499	4,999847
0,888000	0,516815	4,712372
0,889000	0,506439	4,765320
0,890000	0,509033	3,473969
0,891000	0,516663	3,886108
0,892000	0,515594	3,495178
0,893000	0,500031	4,999847
0,894000	0,488281	4,999847
0,895000	0,483551	4,999847
0,896000	0,447693	4,999847
0,897000	0,435181	4,999847
0,898000	0,445099	4,999847
0,899000	0,451202	3,325043
0,900000	0,482635	4,999847
0,901000	0,503998	2,936554
0,902000	0,513000	4,999847
0,903000	0,518341	4,999847
0,904000	0,517578	4,999847
0,905000	0,514374	4,999847
0,906000	0,509033	4,999847
0,907000	0,520172	4,999847
0,908000	0,516510	4,769287
0,909000	0,514832	4,442902
0,910000	0,521545	3,272858
0,911000	0,527039	4,674835
0,912000	0,530701	4,441071
0,913000	0,525818	4,999847
0,914000	0,533905	4,999847
0,915000	0,537415	4,999847
0,916000	0,545349	4,999847
0,917000	0,539093	4,999847
0,918000	0,544739	4,598694
0,919000	0,543671	3,925781
0,920000	0,547943	4,378815
0,921000	0,549469	4,196625
0,922000	0,547943	4,999847
0,923000	0,536957	4,999847
0,924000	0,536652	4,999847
0,925000	0,539093	4,999847
0,926000	0,543213	4,999847
0,927000	0,546722	4,999847
0,928000	0,548859	4,999847
0,929000	0,556793	4,261932
0,930000	0,549164	2,646027
0,931000	0,544128	4,116516
0,932000	0,535431	4,250793
0,933000	0,529633	4,999847
0,934000	0,521545	4,999847
0,935000	0,519257	4,999847
0,936000	0,529938	4,999847
0,937000	0,535889	4,999847
0,938000	0,534668	4,114532
0,939000	0,537262	4,009857
0,940000	0,535583	2,459259
0,941000	0,536041	4,634399
0,942000	0,529480	4,999847
0,943000	0,530853	4,999847
0,944000	0,537262	4,999847
0,945000	0,534821	4,999847
0,946000	0,538940	4,999847
0,947000	0,537109	4,999847
0,948000	0,534973	4,999847
0,949000	0,533295	4,542236
0,950000	0,534973	2,520142
0,951000	0,531769	4,082642
0,952000	0,524292	3,540039
0,953000	0,519104	4,978943
0,954000	0,514069	4,999847
0,955000	0,510254	4,999847
0,956000	0,514832	4,999847
0,957000	0,504608	4,999847
0,958000	0,511627	4,999847
0,959000	0,494995	3,487549
0,960000	0,512695	4,824066
0,961000	0,500336	2,831879
0,962000	0,519714	4,999847
0,963000	0,498352	4,999847
0,964000	0,519104	4,999847
0,965000	0,501099	4,999847
0,966000	0,516815	4,999847
0,967000	0,513611	4,999847
0,968000	0,483551	4,999847
0,969000	0,488129	4,720154
0,970000	0,509033	4,026184
0,971000	0,526733	4,454193
0,972000	0,531464	4,183502
0,973000	0,541534	4,888611
0,974000	0,525513	4,999847
0,975000	0,543976	4,999847
0,976000	0,528564	4,999847
0,977000	0,549622	4,999847
0,978000	0,524902	4,458313
0,979000	0,546265	4,382629
0,980000	0,536499	2,772064
0,981000	0,547028	4,623413
0,982000	0,544739	4,999847
0,983000	0,531616	4,999847
0,984000	0,534973	4,999847
0,985000	0,531311	4,999847
0,986000	0,544434	4,999847
0,987000	0,527802	4,999847
0,988000	0,551300	4,535065
0,989000	0,533295	3,837738
0,990000	0,560913	3,572845
0,991000	0,538940	4,190369
0,992000	0,568695	3,825836
0,993000	0,544891	4,999847
0,994000	0,563660	4,999847
0,995000	0,553894	4,999847
0,996000	0,565186	4,999847
0,997000	0,559082	4,999847
0,998000	0,570221	4,999847
0,999000	0,573730	4,086609

