LabVIEW Measurement	
Writer_Version	2
Reader_Version	2
Separator	Tab
Decimal_Separator	,
Multi_Headings	Yes
X_Columns	One
Time_Pref	Absolute
Operator	d.nicolai
Date	2023/11/09
Time	16:04:05,6565121999996605588
***End_of_Header***	
	
Channels	2		
Samples	1000	1000	
Date	2023/11/09	2023/11/09	
Time	16:04:23,7455147999996144738	16:04:23,7455147999996144738	
Y_Unit_Label	Volts	Volts	
X_Dimension	Time	Time	
X0	0,0000000000000000E+0	0,0000000000000000E+0	
Delta_X	0,001000	0,001000	
***End_of_Header***			
X_Value	powebox	triggerbox	Comment
0,000000	0,659027	1,069489
0,001000	0,604401	4,294739
0,002000	0,672760	3,092804
0,003000	0,590363	4,999847
0,004000	0,682678	4,999847
0,005000	0,584564	4,999847
0,006000	0,675507	4,999847
0,007000	0,606689	4,999847
0,008000	0,660095	4,559937
0,009000	0,628052	3,687744
0,010000	0,646820	4,217834
0,011000	0,646057	4,602356
0,012000	0,631714	4,999847
0,013000	0,655975	4,999847
0,014000	0,617371	4,999847
0,015000	0,676270	4,999847
0,016000	0,610199	4,999847
0,017000	0,691528	4,999847
0,018000	0,603180	4,692078
0,019000	0,705719	4,461365
0,020000	0,609589	4,999847
0,021000	0,691528	3,393860
0,022000	0,631561	4,307251
0,023000	0,675201	4,999847
0,024000	0,650940	4,999847
0,025000	0,659943	4,999847
0,026000	0,668945	4,999847
0,027000	0,646057	4,999847
0,028000	0,685425	4,477692
0,029000	0,633545	3,357086
0,030000	0,700531	4,302979
0,031000	0,624390	4,999847
0,032000	0,715637	4,999847
0,033000	0,613861	4,999847
0,034000	0,721588	4,999847
0,035000	0,629120	4,999847
0,036000	0,701141	4,999847
0,037000	0,650330	4,999847
0,038000	0,685425	4,642792
0,039000	0,671234	4,060822
0,040000	0,670929	4,111328
0,041000	0,690002	3,804474
0,042000	0,657043	4,048920
0,043000	0,707245	4,999847
0,044000	0,642853	4,999847
0,045000	0,721588	4,999847
0,046000	0,630646	4,999847
0,047000	0,735626	4,999847
0,048000	0,625916	4,122009
0,049000	0,733948	3,480225
0,050000	0,651703	4,082184
0,051000	0,715637	4,768982
0,052000	0,674744	4,668884
0,053000	0,699158	4,999847
0,054000	0,695190	4,999847
0,055000	0,684509	4,999847
0,056000	0,714569	4,999847
0,057000	0,671234	4,999847
0,058000	0,731659	4,999847
0,059000	0,659027	3,423309
0,060000	0,747528	4,877930
0,061000	0,649109	2,735596
0,062000	0,762939	2,932129
0,063000	0,654144	4,999847
0,064000	0,750122	4,999847
0,065000	0,678711	4,999847
0,066000	0,731354	4,999847
0,067000	0,700989	4,999847
0,068000	0,715179	4,351196
0,069000	0,720367	2,514191
0,070000	0,670471	2,928314
0,071000	0,708008	4,999847
0,072000	0,657196	4,800568
0,073000	0,724182	4,999847
0,074000	0,645905	4,999847
0,075000	0,738983	4,999847
0,076000	0,636444	4,999847
0,077000	0,749969	4,999847
0,078000	0,650940	4,999847
0,079000	0,731049	4,019012
0,080000	0,673981	4,552612
0,081000	0,713196	3,742523
0,082000	0,695038	4,220734
0,083000	0,697784	4,999847
0,084000	0,713959	4,999847
0,085000	0,684357	4,999847
0,086000	0,731659	4,999847
0,087000	0,672607	4,999847
0,088000	0,747681	4,322968
0,089000	0,661926	2,451324
0,090000	0,754395	4,118500
0,091000	0,618744	3,629608
0,092000	0,744934	4,693909
0,093000	0,668793	4,999847
0,094000	0,741119	4,999847
0,095000	0,698090	4,999847
0,096000	0,728149	4,999847
0,097000	0,720673	4,999847
0,098000	0,713654	4,083710
0,099000	0,739136	3,420563
0,100000	0,700989	4,638672
0,101000	0,756836	3,376465
0,102000	0,689545	4,310303
0,103000	0,772705	4,999847
0,104000	0,679474	4,999847
0,105000	0,787354	4,999847
0,106000	0,681000	4,999847
0,107000	0,780334	4,999847
0,108000	0,705566	4,999847
0,109000	0,761871	3,224640
0,110000	0,726776	3,618774
0,111000	0,745087	4,011078
0,112000	0,746307	4,781952
0,113000	0,730743	4,999847
0,114000	0,764313	4,999847
0,115000	0,717926	4,999847
0,116000	0,781403	4,999847
0,117000	0,706787	4,999847
0,118000	0,797577	4,681091
0,119000	0,696564	3,594055
0,120000	0,811615	3,555756
0,121000	0,709534	3,117676
0,122000	0,796967	4,601593
0,123000	0,731812	4,999847
0,124000	0,780334	4,999847
0,125000	0,752869	4,999847
0,126000	0,764008	4,999847
0,127000	0,772247	4,999847
0,128000	0,749817	4,074097
0,129000	0,790405	3,841248
0,130000	0,736694	3,185577
0,131000	0,807648	4,484100
0,132000	0,724945	4,999847
0,133000	0,824432	4,999847
0,134000	0,714722	4,999847
0,135000	0,832520	4,999847
0,136000	0,736694	4,999847
0,137000	0,814056	4,999847
0,138000	0,758820	4,999847
0,139000	0,796967	4,861755
0,140000	0,779114	4,835663
0,141000	0,781250	2,995605
0,142000	0,798187	3,533783
0,143000	0,766296	4,999847
0,144000	0,816193	4,999847
0,145000	0,752258	4,999847
0,146000	0,833282	4,999847
0,147000	0,740204	4,999847
0,148000	0,847931	4,701233
0,149000	0,738831	3,396606
0,150000	0,845795	4,204865
0,151000	0,761108	3,924255
0,152000	0,826111	4,592590
0,153000	0,782318	4,999847
0,154000	0,808258	4,999847
0,155000	0,802002	4,999847
0,156000	0,791168	4,999847
0,157000	0,821075	4,999847
0,158000	0,776367	4,555054
0,159000	0,838165	4,140625
0,160000	0,762482	4,813995
0,161000	0,853119	3,233643
0,162000	0,749969	4,999847
0,163000	0,862122	4,999847
0,164000	0,758820	4,999847
0,165000	0,848541	4,999847
0,166000	0,780640	4,999847
0,167000	0,829010	4,999847
0,168000	0,801392	4,611969
0,169000	0,810699	3,467255
0,170000	0,820618	0,445709
0,171000	0,795441	4,779053
0,172000	0,839539	4,999847
0,173000	0,780640	4,999847
0,174000	0,854340	4,999847
0,175000	0,767517	4,999847
0,176000	0,864868	4,999847
0,177000	0,754852	4,999847
0,178000	0,866089	4,872894
0,179000	0,743561	4,017029
0,180000	0,682983	2,825470
0,181000	0,655365	2,864075
0,182000	0,642548	3,967590
0,183000	0,636902	4,999847
0,184000	0,634003	4,999847
0,185000	0,632324	4,999847
0,186000	0,631866	4,999847
0,187000	0,631256	4,999847
0,188000	0,631409	4,507141
0,189000	0,631409	4,387665
0,190000	0,631104	4,268188
0,191000	0,630951	3,285217
0,192000	0,630951	4,999847
0,193000	0,614471	4,999847
0,194000	0,623322	4,999847
0,195000	0,627747	4,999847
0,196000	0,628967	4,999847
0,197000	0,630035	4,999847
0,198000	0,630646	4,999847
0,199000	0,630493	3,656006
0,200000	0,630493	4,999847
0,201000	0,630646	3,180084
0,202000	0,630493	3,895721
0,203000	0,603180	4,999847
0,204000	0,534973	4,999847
0,205000	0,505066	4,999847
0,206000	0,491028	4,999847
0,207000	0,484619	4,999847
0,208000	0,481262	4,540710
0,209000	0,480042	3,235779
0,210000	0,479889	0,985870
0,211000	0,479584	4,999847
0,212000	0,480347	4,999847
0,213000	0,477753	4,999847
0,214000	0,476532	4,999847
0,215000	0,475159	4,999847
0,216000	0,477600	4,999847
0,217000	0,477448	4,999847
0,218000	0,478973	4,999847
0,219000	0,477753	4,354401
0,220000	0,477753	4,468994
0,221000	0,474701	4,096832
0,222000	0,473633	4,451141
0,223000	0,474243	4,999847
0,224000	0,473938	4,999847
0,225000	0,473480	4,999847
0,226000	0,463257	4,999847
0,227000	0,470886	4,999847
0,228000	0,473328	4,470367
0,229000	0,476532	4,474640
0,230000	0,476379	3,280334
0,231000	0,477448	3,945923
0,232000	0,476379	4,937744
0,233000	0,475769	4,999847
0,234000	0,476532	4,999847
0,235000	0,477142	4,999847
0,236000	0,477448	4,999847
0,237000	0,477448	4,999847
0,238000	0,478668	4,999847
0,239000	0,479584	3,738556
0,240000	0,480957	3,793793
0,241000	0,481720	3,603516
0,242000	0,481262	4,933014
0,243000	0,482330	4,999847
0,244000	0,485382	4,999847
0,245000	0,501099	4,999847
0,246000	0,502625	4,999847
0,247000	0,503998	4,999847
0,248000	0,503540	4,696655
0,249000	0,504303	3,711243
0,250000	0,504303	4,116364
0,251000	0,504761	4,999847
0,252000	0,505829	4,999847
0,253000	0,505981	4,999847
0,254000	0,507050	4,999847
0,255000	0,506744	4,999847
0,256000	0,508881	4,999847
0,257000	0,507812	4,999847
0,258000	0,510254	4,999847
0,259000	0,509491	3,750153
0,260000	0,511932	3,721466
0,261000	0,511932	4,082184
0,262000	0,514069	4,705505
0,263000	0,513611	4,999847
0,264000	0,514679	4,999847
0,265000	0,514832	4,999847
0,266000	0,516663	4,999847
0,267000	0,516815	4,999847
0,268000	0,516052	4,807739
0,269000	0,518646	2,371979
0,270000	0,516815	3,421021
0,271000	0,520477	4,409943
0,272000	0,516357	4,999847
0,273000	0,521088	4,999847
0,274000	0,515137	4,999847
0,275000	0,522308	4,999847
0,276000	0,518646	4,999847
0,277000	0,523224	4,999847
0,278000	0,521240	4,999847
0,279000	0,523376	3,786011
0,280000	0,523224	3,753662
0,281000	0,523071	2,682343
0,282000	0,525970	4,868927
0,283000	0,523224	4,999847
0,284000	0,528717	4,999847
0,285000	0,521545	4,999847
0,286000	0,530243	4,999847
0,287000	0,520782	4,999847
0,288000	0,533447	4,336395
0,289000	0,521698	3,056641
0,290000	0,532684	3,031311
0,291000	0,525055	4,098511
0,292000	0,532074	4,999847
0,293000	0,528564	4,999847
0,294000	0,530701	4,999847
0,295000	0,509186	4,999847
0,296000	0,482330	4,999847
0,297000	0,503998	4,999847
0,298000	0,512085	4,999847
0,299000	0,531464	4,651337
0,300000	0,519562	3,353119
0,301000	0,540009	4,077301
0,302000	0,521851	4,674225
0,303000	0,544739	4,999847
0,304000	0,525055	4,999847
0,305000	0,541229	4,999847
0,306000	0,527191	4,999847
0,307000	0,536652	4,999847
0,308000	0,532684	4,999847
0,309000	0,533142	3,728485
0,310000	0,537872	4,041443
0,311000	0,529938	3,962250
0,312000	0,543671	4,999847
0,313000	0,527496	4,999847
0,314000	0,549164	4,999847
0,315000	0,523682	4,999847
0,316000	0,553741	4,999847
0,317000	0,522614	4,999847
0,318000	0,554810	4,886780
0,319000	0,529480	3,724518
0,320000	0,549011	4,853363
0,321000	0,535736	2,736206
0,322000	0,542297	4,027405
0,323000	0,541687	4,999847
0,324000	0,539398	4,999847
0,325000	0,548553	4,999847
0,326000	0,536041	4,999847
0,327000	0,557251	4,999847
0,328000	0,531769	4,714813
0,329000	0,561066	3,374023
0,330000	0,522003	3,089447
0,331000	0,566101	4,711456
0,332000	0,526581	4,999847
0,333000	0,563354	4,999847
0,334000	0,536652	4,999847
0,335000	0,558319	4,999847
0,336000	0,545044	4,999847
0,337000	0,550995	4,999847
0,338000	0,553131	4,772339
0,339000	0,544128	3,884583
0,340000	0,560455	4,919281
0,341000	0,532379	3,743744
0,342000	0,565033	4,849701
0,343000	0,529175	4,999847
0,344000	0,573883	4,999847
0,345000	0,523529	4,999847
0,346000	0,579376	4,999847
0,347000	0,533752	4,999847
0,348000	0,573425	4,500580
0,349000	0,546570	2,780304
0,350000	0,567017	4,799652
0,351000	0,558319	4,479980
0,352000	0,561066	4,999847
0,353000	0,568695	4,999847
0,354000	0,555420	4,999847
0,355000	0,578766	4,999847
0,356000	0,550537	4,999847
0,357000	0,587921	4,999847
0,358000	0,547333	4,999847
0,359000	0,597076	3,921204
0,360000	0,543518	3,211975
0,361000	0,597839	3,555145
0,362000	0,554047	4,572906
0,363000	0,589294	4,999847
0,364000	0,566254	4,999847
0,365000	0,580750	4,999847
0,366000	0,575562	4,999847
0,367000	0,549622	4,999847
0,368000	0,559998	4,552002
0,369000	0,524750	3,694153
0,370000	0,566254	2,211151
0,371000	0,511322	4,999847
0,372000	0,577850	4,999847
0,373000	0,512390	4,999847
0,374000	0,595093	4,999847
0,375000	0,532227	4,999847
0,376000	0,598907	4,999847
0,377000	0,558929	4,999847
0,378000	0,594330	4,502411
0,379000	0,559998	4,271393
0,380000	0,570221	4,311523
0,381000	0,577850	3,912506
0,382000	0,571136	3,638763
0,383000	0,588226	4,999847
0,384000	0,561523	4,999847
0,385000	0,605621	4,999847
0,386000	0,561371	4,999847
0,387000	0,620117	4,999847
0,388000	0,557404	4,000092
0,389000	0,630188	3,597870
0,390000	0,563354	3,353729
0,391000	0,617828	4,668427
0,392000	0,578003	4,999847
0,393000	0,607300	4,999847
0,394000	0,592957	4,999847
0,395000	0,597534	4,999847
0,396000	0,605927	4,999847
0,397000	0,588684	4,999847
0,398000	0,595245	4,537201
0,399000	0,569305	3,917999
0,400000	0,624542	3,090210
0,401000	0,569458	3,939819
0,402000	0,638580	4,147644
0,403000	0,562897	4,999847
0,404000	0,639954	4,999847
0,405000	0,573883	4,999847
0,406000	0,626831	4,999847
0,407000	0,593109	4,999847
0,408000	0,616455	4,092865
0,409000	0,608368	3,275146
0,410000	0,603790	3,735809
0,411000	0,619659	4,309082
0,412000	0,584106	4,999847
0,413000	0,626068	4,999847
0,414000	0,574036	4,999847
0,415000	0,640106	4,999847
0,416000	0,569763	4,999847
0,417000	0,653992	4,999847
0,418000	0,567474	4,999847
0,419000	0,649109	4,697418
0,420000	0,589905	4,999847
0,421000	0,636292	3,753357
0,422000	0,606995	4,999847
0,423000	0,623322	4,999847
0,424000	0,623016	4,999847
0,425000	0,610809	4,999847
0,426000	0,637665	4,999847
0,427000	0,600433	4,999847
0,428000	0,651245	4,983063
0,429000	0,590210	2,889709
0,430000	0,662994	2,873993
0,431000	0,581360	4,603882
0,432000	0,675354	4,999847
0,433000	0,585480	4,999847
0,434000	0,659790	4,999847
0,435000	0,604858	4,999847
0,436000	0,644379	4,999847
0,437000	0,623474	4,999847
0,438000	0,631409	4,630432
0,439000	0,639801	3,560333
0,440000	0,619049	3,878479
0,441000	0,655975	3,359528
0,442000	0,607605	4,999847
0,443000	0,670013	4,999847
0,444000	0,597229	4,999847
0,445000	0,682983	4,999847
0,446000	0,588074	4,999847
0,447000	0,688324	4,999847
0,448000	0,603485	4,999847
0,449000	0,670471	3,187256
0,450000	0,570679	2,655029
0,451000	0,525665	4,999847
0,452000	0,505981	4,999847
0,453000	0,562286	4,999847
0,454000	0,613708	4,999847
0,455000	0,634918	4,999847
0,456000	0,625305	4,999847
0,457000	0,662384	4,999847
0,458000	0,616913	4,999847
0,459000	0,680084	3,962402
0,460000	0,607910	4,722290
0,461000	0,695496	4,000244
0,462000	0,599060	4,999847
0,463000	0,706024	4,999847
0,464000	0,609436	4,999847
0,465000	0,687866	4,999847
0,466000	0,631866	4,999847
0,467000	0,671387	4,545135
0,468000	0,651855	4,852142
0,469000	0,656433	3,743591
0,470000	0,670624	2,035980
0,471000	0,642700	4,450378
0,472000	0,688019	4,999847
0,473000	0,630951	4,999847
0,474000	0,704041	4,999847
0,475000	0,620880	4,999847
0,476000	0,718536	4,999847
0,477000	0,611267	4,999847
0,478000	0,720367	4,999847
0,479000	0,633087	4,080658
0,480000	0,701904	3,291168
0,481000	0,655212	3,545685
0,482000	0,684814	4,438934
0,483000	0,675659	4,999847
0,484000	0,669861	4,999847
0,485000	0,694122	4,999847
0,486000	0,656281	4,999847
0,487000	0,711517	4,846039
0,488000	0,644684	4,251404
0,489000	0,728302	2,751770
0,490000	0,634613	4,037628
0,491000	0,742798	4,999847
0,492000	0,632782	4,999847
0,493000	0,734100	4,999847
0,494000	0,657349	4,999847
0,495000	0,715332	4,999847
0,496000	0,679932	4,999847
0,497000	0,672150	4,999847
0,498000	0,671234	4,999847
0,499000	0,655060	3,211212
0,500000	0,662079	3,533020
0,501000	0,629272	4,721069
0,502000	0,699921	4,926758
0,503000	0,629272	4,999847
0,504000	0,720673	4,999847
0,505000	0,622101	4,999847
0,506000	0,734863	4,999847
0,507000	0,632935	4,999847
0,508000	0,717926	4,999847
0,509000	0,656281	2,349854
0,510000	0,700531	3,023682
0,511000	0,677948	4,999847
0,512000	0,685272	4,999847
0,513000	0,697937	4,999847
0,514000	0,671539	4,999847
0,515000	0,715179	4,999847
0,516000	0,659790	4,999847
0,517000	0,731964	4,999847
0,518000	0,650330	4,999847
0,519000	0,747375	3,354950
0,520000	0,640564	3,653259
0,521000	0,752411	4,011993
0,522000	0,660400	4,058685
0,523000	0,733337	4,999847
0,524000	0,683136	4,999847
0,525000	0,716858	4,999847
0,526000	0,703888	4,999847
0,527000	0,701141	4,861755
0,528000	0,723114	4,281769
0,529000	0,685425	3,242950
0,530000	0,739441	1,785583
0,531000	0,675964	4,999847
0,532000	0,756378	4,999847
0,533000	0,666199	4,999847
0,534000	0,771332	4,999847
0,535000	0,662231	4,999847
0,536000	0,767059	4,999847
0,537000	0,686798	4,999847
0,538000	0,748596	4,727936
0,539000	0,709381	3,810120
0,540000	0,731964	3,524323
0,541000	0,729828	4,243011
0,542000	0,717773	4,037018
0,543000	0,748596	4,999847
0,544000	0,704803	4,999847
0,545000	0,765228	4,999847
0,546000	0,693054	4,999847
0,547000	0,780945	4,999847
0,548000	0,683136	4,814758
0,549000	0,795288	3,135071
0,550000	0,690002	3,216095
0,551000	0,782776	4,999847
0,552000	0,713806	4,999847
0,553000	0,765228	4,999847
0,554000	0,735321	4,999847
0,555000	0,749207	4,999847
0,556000	0,755005	4,999847
0,557000	0,734711	4,999847
0,558000	0,772858	4,999847
0,559000	0,722046	3,347321
0,560000	0,789642	3,655701
0,561000	0,711060	4,366455
0,562000	0,805817	4,428864
0,563000	0,700836	4,999847
0,564000	0,818329	4,999847
0,565000	0,717773	4,999847
0,566000	0,800934	4,999847
0,567000	0,740662	4,999847
0,568000	0,783081	4,553223
0,569000	0,761414	2,599182
0,570000	0,767822	3,247528
0,571000	0,780182	4,999847
0,572000	0,753479	4,971466
0,573000	0,798340	4,999847
0,574000	0,741119	4,999847
0,575000	0,815887	4,999847
0,576000	0,728302	4,999847
0,577000	0,831604	4,999847
0,578000	0,721741	4,999847
0,579000	0,836945	3,689880
0,580000	0,745697	4,348907
0,581000	0,818176	4,725494
0,582000	0,767365	3,793488
0,583000	0,800629	4,999847
0,584000	0,786896	4,999847
0,585000	0,784149	4,999847
0,586000	0,805511	4,999847
0,587000	0,769348	4,999847
0,588000	0,824127	4,951935
0,589000	0,755768	2,498627
0,590000	0,839996	3,292999
0,591000	0,742493	4,297791
0,592000	0,853271	4,999847
0,593000	0,746002	4,999847
0,594000	0,846558	4,999847
0,595000	0,768433	4,999847
0,596000	0,826874	4,999847
0,597000	0,789337	4,999847
0,598000	0,808868	4,774170
0,599000	0,808563	3,205109
0,600000	0,792542	4,099121
0,601000	0,826874	3,616333
0,602000	0,771027	4,115143
0,603000	0,813599	4,999847
0,604000	0,743103	4,999847
0,605000	0,848846	4,999847
0,606000	0,748901	4,999847
0,607000	0,863190	4,999847
0,608000	0,764771	4,755096
0,609000	0,847626	3,114624
0,610000	0,786438	3,422089
0,611000	0,828247	4,999847
0,612000	0,807037	4,999847
0,613000	0,811310	4,999847
0,614000	0,826874	4,999847
0,615000	0,795441	4,999847
0,616000	0,844574	4,999847
0,617000	0,780640	4,999847
0,618000	0,858307	4,705505
0,619000	0,766754	3,825226
0,620000	0,693207	4,999847
0,621000	0,659790	3,610687
0,622000	0,644684	4,999847
0,623000	0,637207	4,999847
0,624000	0,634155	4,999847
0,625000	0,632477	4,999847
0,626000	0,631561	4,999847
0,627000	0,631561	4,999847
0,628000	0,631104	4,939575
0,629000	0,631409	2,552185
0,630000	0,631104	3,980713
0,631000	0,631409	4,477997
0,632000	0,630798	4,999847
0,633000	0,631409	4,999847
0,634000	0,630951	4,999847
0,635000	0,630646	4,999847
0,636000	0,630951	4,999847
0,637000	0,630798	4,999847
0,638000	0,631256	4,999847
0,639000	0,630798	3,616486
0,640000	0,631104	4,029388
0,641000	0,554504	4,223480
0,642000	0,509796	4,725494
0,643000	0,486603	4,999847
0,644000	0,476532	4,999847
0,645000	0,470581	4,999847
0,646000	0,466614	4,999847
0,647000	0,466309	4,999847
0,648000	0,466461	3,736877
0,649000	0,467834	3,182220
0,650000	0,471344	3,230743
0,651000	0,472717	3,850098
0,652000	0,473328	4,999847
0,653000	0,471191	4,999847
0,654000	0,467224	4,999847
0,655000	0,463562	4,999847
0,656000	0,465393	4,999847
0,657000	0,466309	4,999847
0,658000	0,465698	4,828796
0,659000	0,465088	3,641510
0,660000	0,467072	3,543701
0,661000	0,470276	3,335266
0,662000	0,469360	4,770355
0,663000	0,470581	4,999847
0,664000	0,468750	4,999847
0,665000	0,434113	4,999847
0,666000	0,427399	4,999847
0,667000	0,439301	4,720459
0,668000	0,448303	4,946747
0,669000	0,458679	3,046265
0,670000	0,465393	3,260345
0,671000	0,469360	4,999847
0,672000	0,471039	4,999847
0,673000	0,471344	4,999847
0,674000	0,473022	4,999847
0,675000	0,473175	4,999847
0,676000	0,467987	4,999847
0,677000	0,470428	4,999847
0,678000	0,472412	4,556427
0,679000	0,473785	3,658600
0,680000	0,474243	4,999847
0,681000	0,474243	4,389648
0,682000	0,475311	4,999847
0,683000	0,475311	4,999847
0,684000	0,477142	4,999847
0,685000	0,478210	4,999847
0,686000	0,490265	4,999847
0,687000	0,497589	4,999847
0,688000	0,500336	3,867493
0,689000	0,497894	3,401184
0,690000	0,501862	3,199921
0,691000	0,500183	4,730377
0,692000	0,503693	4,999847
0,693000	0,503998	4,999847
0,694000	0,505981	4,999847
0,695000	0,506439	4,999847
0,696000	0,506592	4,999847
0,697000	0,507965	4,999847
0,698000	0,507965	4,945831
0,699000	0,510712	4,301758
0,700000	0,509491	3,810730
0,701000	0,512848	3,683319
0,702000	0,511627	4,999847
0,703000	0,516052	4,999847
0,704000	0,514221	4,999847
0,705000	0,483704	4,999847
0,706000	0,465851	4,999847
0,707000	0,495911	4,481964
0,708000	0,508118	4,145966
0,709000	0,514526	3,474884
0,710000	0,517578	2,881622
0,711000	0,519257	4,882202
0,712000	0,522614	4,999847
0,713000	0,523529	4,999847
0,714000	0,527344	4,999847
0,715000	0,527039	4,999847
0,716000	0,531921	4,999847
0,717000	0,533295	4,999847
0,718000	0,537262	4,999847
0,719000	0,540924	3,539734
0,720000	0,543823	4,999847
0,721000	0,544891	4,133148
0,722000	0,547791	4,999847
0,723000	0,558777	4,999847
0,724000	0,571136	4,999847
0,725000	0,579376	4,999847
0,726000	0,590057	4,999847
0,727000	0,595245	4,999847
0,728000	0,600739	4,938965
0,729000	0,609894	2,909546
0,730000	0,611115	3,916321
0,731000	0,616302	4,999847
0,732000	0,616150	4,999847
0,733000	0,623169	4,999847
0,734000	0,615082	4,999847
0,735000	0,621948	4,999847
0,736000	0,614777	4,999847
0,737000	0,619659	4,999847
0,738000	0,622864	4,999847
0,739000	0,616150	3,795471
0,740000	0,619049	3,841095
0,741000	0,620117	3,088226
0,742000	0,621338	4,857941
0,743000	0,604553	4,999847
0,744000	0,612640	4,999847
0,745000	0,614471	4,999847
0,746000	0,619812	4,999847
0,747000	0,615540	4,767761
0,748000	0,619965	4,737091
0,749000	0,615845	3,038025
0,750000	0,617828	3,359528
0,751000	0,616913	4,999847
0,752000	0,620117	4,999847
0,753000	0,614014	4,999847
0,754000	0,612183	4,999847
0,755000	0,614777	4,999847
0,756000	0,613708	4,999847
0,757000	0,615082	4,999847
0,758000	0,550232	4,999847
0,759000	0,579071	3,655853
0,760000	0,617371	4,436340
0,761000	0,653839	3,544922
0,762000	0,674591	4,818268
0,763000	0,703278	4,999847
0,764000	0,707550	4,999847
0,765000	0,717621	4,999847
0,766000	0,712738	4,999847
0,767000	0,712128	4,999847
0,768000	0,714264	4,884949
0,769000	0,713806	2,869720
0,770000	0,713043	3,120575
0,771000	0,708618	4,999847
0,772000	0,711517	4,999847
0,773000	0,704803	4,999847
0,774000	0,722961	4,999847
0,775000	0,714264	4,999847
0,776000	0,724640	4,999847
0,777000	0,693359	4,999847
0,778000	0,715027	4,800415
0,779000	0,716400	3,208466
0,780000	0,717316	3,811035
0,781000	0,713348	4,767914
0,782000	0,723114	4,999847
0,783000	0,715637	4,999847
0,784000	0,740662	4,999847
0,785000	0,755615	4,999847
0,786000	0,774536	4,999847
0,787000	0,757446	4,999847
0,788000	0,749359	4,999847
0,789000	0,720215	2,756195
0,790000	0,714111	4,019012
0,791000	0,726166	4,999847
0,792000	0,725250	4,999847
0,793000	0,726929	4,999847
0,794000	0,731659	4,999847
0,795000	0,752106	4,999847
0,796000	0,791321	4,999847
0,797000	0,822906	4,999847
0,798000	0,836029	4,999847
0,799000	0,852051	3,457947
0,800000	0,859528	3,655853
0,801000	0,860748	3,864899
0,802000	0,866394	4,743195
0,803000	0,865936	4,999847
0,804000	0,866699	4,999847
0,805000	0,868073	4,999847
0,806000	0,868683	4,999847
0,807000	0,818634	4,999847
0,808000	0,841217	4,999847
0,809000	0,865326	2,561646
0,810000	0,865479	3,318939
0,811000	0,864868	4,999847
0,812000	0,864410	4,999847
0,813000	0,866394	4,999847
0,814000	0,866547	4,999847
0,815000	0,865326	4,999847
0,816000	0,819244	4,999847
0,817000	0,841522	4,999847
0,818000	0,840912	4,542847
0,819000	0,841980	3,400879
0,820000	0,847626	3,904114
0,821000	0,845795	4,047699
0,822000	0,845795	4,999847
0,823000	0,851898	4,999847
0,824000	0,856018	4,999847
0,825000	0,834656	4,999847
0,826000	0,839539	4,999847
0,827000	0,855408	4,999847
0,828000	0,861664	4,535675
0,829000	0,861511	2,665863
0,830000	0,858154	3,862000
0,831000	0,856171	4,925079
0,832000	0,818634	4,999847
0,833000	0,818024	4,999847
0,834000	0,815887	4,999847
0,835000	0,806427	4,999847
0,836000	0,789642	4,999847
0,837000	0,740662	4,999847
0,838000	0,763855	4,999847
0,839000	0,769958	3,422699
0,840000	0,775452	3,451233
0,841000	0,772858	3,814850
0,842000	0,780334	4,999847
0,843000	0,778503	4,999847
0,844000	0,785065	4,999847
0,845000	0,785980	4,999847
0,846000	0,774689	4,999847
0,847000	0,774841	4,999847
0,848000	0,800018	4,412537
0,849000	0,801392	2,788696
0,850000	0,806274	3,663788
0,851000	0,811615	4,999847
0,852000	0,821686	4,999847
0,853000	0,821838	4,999847
0,854000	0,815430	4,999847
0,855000	0,811768	4,999847
0,856000	0,784149	4,999847
0,857000	0,786285	4,999847
0,858000	0,798340	4,271545
0,859000	0,811310	3,535004
0,860000	0,803986	3,530121
0,861000	0,800018	3,439178
0,862000	0,794220	4,999847
0,863000	0,740967	4,999847
0,864000	0,739899	4,999847
0,865000	0,715790	4,999847
0,866000	0,753937	4,999847
0,867000	0,742493	4,950714
0,868000	0,759583	4,605713
0,869000	0,743866	2,647095
0,870000	0,751953	3,211975
0,871000	0,745850	4,898529
0,872000	0,731659	4,999847
0,873000	0,743866	4,999847
0,874000	0,720673	4,999847
0,875000	0,742187	4,999847
0,876000	0,722961	4,999847
0,877000	0,745087	4,999847
0,878000	0,739441	4,999847
0,879000	0,770416	3,354034
0,880000	0,751953	4,815369
0,881000	0,760345	3,813019
0,882000	0,740662	4,999847
0,883000	0,764465	4,999847
0,884000	0,755768	4,999847
0,885000	0,765839	4,999847
0,886000	0,758972	4,999847
0,887000	0,759430	4,999847
0,888000	0,729523	4,089966
0,889000	0,737305	2,810211
0,890000	0,774841	3,136292
0,891000	0,797577	4,291992
0,892000	0,717773	4,999847
0,893000	0,758667	4,999847
0,894000	0,759125	4,999847
0,895000	0,780792	4,999847
0,896000	0,794830	4,999847
0,897000	0,819397	4,999847
0,898000	0,819855	4,985352
0,899000	0,830688	3,688354
0,900000	0,826416	4,999847
0,901000	0,836334	2,821350
0,902000	0,833740	4,764557
0,903000	0,840302	4,999847
0,904000	0,833435	4,999847
0,905000	0,826416	4,999847
0,906000	0,818939	4,999847
0,907000	0,777588	4,999847
0,908000	0,795746	4,388428
0,909000	0,744324	2,963562
0,910000	0,733032	3,092041
0,911000	0,707703	4,999847
0,912000	0,754700	4,999847
0,913000	0,738220	4,999847
0,914000	0,750427	4,999847
0,915000	0,745697	4,999847
0,916000	0,765991	4,999847
0,917000	0,764313	4,999847
0,918000	0,739136	4,945984
0,919000	0,757904	3,477173
0,920000	0,728760	4,603577
0,921000	0,762177	3,033142
0,922000	0,732269	4,999847
0,923000	0,756378	4,999847
0,924000	0,725861	4,999847
0,925000	0,782928	4,999847
0,926000	0,757904	4,999847
0,927000	0,804291	4,841003
0,928000	0,789795	4,428406
0,929000	0,818787	3,170013
0,930000	0,798187	3,170776
0,931000	0,809174	4,276276
0,932000	0,800476	4,999847
0,933000	0,787811	4,999847
0,934000	0,797272	4,999847
0,935000	0,751343	4,999847
0,936000	0,790405	4,999847
0,937000	0,769196	4,999847
0,938000	0,814209	4,999847
0,939000	0,784912	3,783112
0,940000	0,829163	4,999847
0,941000	0,827332	2,714233
0,942000	0,847778	4,999847
0,943000	0,824127	4,999847
0,944000	0,838013	4,999847
0,945000	0,818481	4,999847
0,946000	0,801544	4,999847
0,947000	0,805206	4,469604
0,948000	0,756531	4,669495
0,949000	0,793457	3,185883
0,950000	0,796967	4,165344
0,951000	0,835266	4,999847
0,952000	0,803680	4,999847
0,953000	0,846863	4,999847
0,954000	0,814056	4,999847
0,955000	0,849304	4,999847
0,956000	0,819550	4,999847
0,957000	0,848999	4,999847
0,958000	0,828857	4,999847
0,959000	0,826263	3,466187
0,960000	0,824738	4,999847
0,961000	0,817108	3,244019
0,962000	0,832977	4,999847
0,963000	0,813751	4,999847
0,964000	0,844421	4,999847
0,965000	0,799103	4,999847
0,966000	0,850525	4,999847
0,967000	0,788879	4,799500
0,968000	0,848846	3,918762
0,969000	0,800629	3,062592
0,970000	0,848236	2,732849
0,971000	0,809784	4,999847
0,972000	0,822601	4,999847
0,973000	0,806274	4,999847
0,974000	0,797577	4,999847
0,975000	0,808411	4,999847
0,976000	0,817719	4,999847
0,977000	0,846252	4,999847
0,978000	0,819702	4,766235
0,979000	0,854950	3,514252
0,980000	0,810699	4,999847
0,981000	0,860291	3,550110
0,982000	0,806580	4,999847
0,983000	0,861053	4,999847
0,984000	0,831604	4,999847
0,985000	0,858459	4,999847
0,986000	0,836487	4,999847
0,987000	0,857239	4,516602
0,988000	0,850983	4,999847
0,989000	0,847778	3,094788
0,990000	0,855865	4,077454
0,991000	0,827332	4,999847
0,992000	0,857391	4,999847
0,993000	0,814362	4,999847
0,994000	0,861969	4,999847
0,995000	0,843506	4,999847
0,996000	0,865936	4,999847
0,997000	0,840302	4,799042
0,998000	0,865784	4,063721
0,999000	0,840454	3,593903

