LabVIEW Measurement	
Writer_Version	2
Reader_Version	2
Separator	Tab
Decimal_Separator	,
Multi_Headings	Yes
X_Columns	One
Time_Pref	Absolute
Operator	d.nicolai
Date	2023/11/09
Time	16:04:05,6565121999996605588
***End_of_Header***	
	
Channels	2		
Samples	1000	1000	
Date	2023/11/09	2023/11/09	
Time	16:04:12,0795127999999593257	16:04:12,0795127999999593257	
Y_Unit_Label	Volts	Volts	
X_Dimension	Time	Time	
X0	0,0000000000000000E+0	0,0000000000000000E+0	
Delta_X	0,001000	0,001000	
***End_of_Header***			
X_Value	powebox	triggerbox	Comment
0,000000	0,848541	0,767517
0,001000	0,746307	3,637543
0,002000	0,855103	4,999847
0,003000	0,778503	4,999847
0,004000	0,859833	4,999847
0,005000	0,796661	4,999847
0,006000	0,851288	4,999847
0,007000	0,812073	4,999847
0,008000	0,812225	4,999847
0,009000	0,817566	4,999847
0,010000	0,810699	1,813965
0,011000	0,842438	4,137115
0,012000	0,802612	4,126587
0,013000	0,856323	4,999847
0,014000	0,778961	4,999847
0,015000	0,859833	4,999847
0,016000	0,773010	4,999847
0,017000	0,861969	4,999847
0,018000	0,779266	4,650269
0,019000	0,855865	3,407898
0,020000	0,800171	3,679962
0,021000	0,834045	3,246918
0,022000	0,818176	4,999847
0,023000	0,823975	4,999847
0,024000	0,840149	4,999847
0,025000	0,804291	4,999847
0,026000	0,852051	4,999847
0,027000	0,792694	4,999847
0,028000	0,860748	4,990997
0,029000	0,778198	3,717346
0,030000	0,864105	2,187653
0,031000	0,785217	3,681335
0,032000	0,864563	4,999847
0,033000	0,807037	4,781036
0,034000	0,861359	4,999847
0,035000	0,828400	4,999847
0,036000	0,855560	4,999847
0,037000	0,734406	4,999847
0,038000	0,675507	4,999847
0,039000	0,648804	3,192749
0,040000	0,635834	3,290710
0,041000	0,629578	4,314880
0,042000	0,627441	4,999847
0,043000	0,625763	4,999847
0,044000	0,625153	4,999847
0,045000	0,624695	4,999847
0,046000	0,624542	4,999847
0,047000	0,624542	4,999847
0,048000	0,624237	4,999847
0,049000	0,624237	4,052277
0,050000	0,624390	3,114166
0,051000	0,623169	4,363708
0,052000	0,623779	4,068756
0,053000	0,623627	4,999847
0,054000	0,623932	4,999847
0,055000	0,623932	4,999847
0,056000	0,625458	4,999847
0,057000	0,610657	4,999847
0,058000	0,594635	4,731750
0,059000	0,588226	3,982849
0,060000	0,581512	3,958282
0,061000	0,579987	3,785248
0,062000	0,579376	4,549561
0,063000	0,578613	4,999847
0,064000	0,578918	4,999847
0,065000	0,580139	4,999847
0,066000	0,582275	4,999847
0,067000	0,581665	4,999847
0,068000	0,568542	4,999847
0,069000	0,557861	3,811493
0,070000	0,555420	3,851166
0,071000	0,557098	2,898254
0,072000	0,556946	3,927460
0,073000	0,557098	3,636932
0,074000	0,556793	4,999847
0,075000	0,554199	4,999847
0,076000	0,556641	4,999847
0,077000	0,557861	4,999847
0,078000	0,569458	4,722595
0,079000	0,577698	2,460480
0,080000	0,579071	4,356537
0,081000	0,578156	4,502106
0,082000	0,547638	4,362030
0,083000	0,542450	4,999847
0,084000	0,563507	4,999847
0,085000	0,571442	4,999847
0,086000	0,572662	4,999847
0,087000	0,573730	4,999847
0,088000	0,573273	4,999847
0,089000	0,567169	3,697815
0,090000	0,558777	3,226624
0,091000	0,551453	4,084930
0,092000	0,554199	4,664154
0,093000	0,551605	4,999847
0,094000	0,557556	4,999847
0,095000	0,553589	4,999847
0,096000	0,542145	4,999847
0,097000	0,538940	4,999847
0,098000	0,539398	4,662781
0,099000	0,545197	3,147583
0,100000	0,550537	3,582153
0,101000	0,555725	3,884735
0,102000	0,545959	4,747925
0,103000	0,545044	4,999847
0,104000	0,538788	4,999847
0,105000	0,534668	4,999847
0,106000	0,520477	4,999847
0,107000	0,523224	4,999847
0,108000	0,523834	4,894104
0,109000	0,526123	3,392944
0,110000	0,523376	4,095001
0,111000	0,524597	3,040771
0,112000	0,524902	3,990326
0,113000	0,523834	4,999847
0,114000	0,523834	4,999847
0,115000	0,523224	4,999847
0,116000	0,523529	4,999847
0,117000	0,517120	4,999847
0,118000	0,519714	4,999847
0,119000	0,514679	3,675385
0,120000	0,515289	2,959900
0,121000	0,516663	4,999847
0,122000	0,522766	4,999847
0,123000	0,525665	4,999847
0,124000	0,525665	4,999847
0,125000	0,526886	4,999847
0,126000	0,528870	4,999847
0,127000	0,528259	4,999847
0,128000	0,527344	4,999847
0,129000	0,528564	4,379730
0,130000	0,526123	4,570923
0,131000	0,529327	3,705139
0,132000	0,525360	3,538513
0,133000	0,528717	4,999847
0,134000	0,525055	4,999847
0,135000	0,526581	4,999847
0,136000	0,531158	4,999847
0,137000	0,536041	4,999847
0,138000	0,539246	4,641113
0,139000	0,541382	2,438354
0,140000	0,543365	2,483063
0,141000	0,542603	3,336334
0,142000	0,542908	4,556732
0,143000	0,540924	4,999847
0,144000	0,544128	4,999847
0,145000	0,538635	4,999847
0,146000	0,536957	4,999847
0,147000	0,536957	4,999847
0,148000	0,536957	4,999847
0,149000	0,537567	3,785706
0,150000	0,536652	4,558716
0,151000	0,541992	2,832947
0,152000	0,547028	4,080048
0,153000	0,547791	4,999847
0,154000	0,549011	4,999847
0,155000	0,547943	4,999847
0,156000	0,549011	4,999847
0,157000	0,550842	4,999847
0,158000	0,552216	4,160004
0,159000	0,551147	3,316803
0,160000	0,553894	3,804932
0,161000	0,553589	4,999847
0,162000	0,559235	4,645691
0,163000	0,566711	4,999847
0,164000	0,577698	4,999847
0,165000	0,581360	4,999847
0,166000	0,589600	4,999847
0,167000	0,591888	4,999847
0,168000	0,592804	4,639587
0,169000	0,589142	3,424530
0,170000	0,586700	4,253845
0,171000	0,588531	3,754425
0,172000	0,594025	3,312225
0,173000	0,591125	4,999847
0,174000	0,590515	4,999847
0,175000	0,594177	4,999847
0,176000	0,590057	4,999847
0,177000	0,593414	4,999847
0,178000	0,580444	3,877258
0,179000	0,585022	2,892456
0,180000	0,583038	3,461456
0,181000	0,586700	3,219910
0,182000	0,584259	4,766846
0,183000	0,584106	4,999847
0,184000	0,583801	4,999847
0,185000	0,548248	4,999847
0,186000	0,555267	4,999847
0,187000	0,565948	4,999847
0,188000	0,585022	4,523315
0,189000	0,583038	4,285583
0,190000	0,594177	2,282410
0,191000	0,583801	4,321594
0,192000	0,599213	4,831238
0,193000	0,596008	4,999847
0,194000	0,600433	4,999847
0,195000	0,600891	4,999847
0,196000	0,596313	4,999847
0,197000	0,594177	4,999847
0,198000	0,588074	3,886414
0,199000	0,595856	3,681793
0,200000	0,594940	4,857635
0,201000	0,603790	3,813019
0,202000	0,583801	4,461670
0,203000	0,599060	4,999847
0,204000	0,575562	4,999847
0,205000	0,598450	4,999847
0,206000	0,579987	4,999847
0,207000	0,596771	4,999847
0,208000	0,592651	4,999847
0,209000	0,604553	3,482666
0,210000	0,604706	2,648468
0,211000	0,605774	2,997589
0,212000	0,610046	3,788910
0,213000	0,604248	4,999847
0,214000	0,613098	4,999847
0,215000	0,599823	4,999847
0,216000	0,614319	4,999847
0,217000	0,598450	4,999847
0,218000	0,618286	4,577179
0,219000	0,592346	3,276825
0,220000	0,617218	1,965332
0,221000	0,601959	3,862762
0,222000	0,614929	4,999847
0,223000	0,606995	4,999847
0,224000	0,611877	4,999847
0,225000	0,612793	4,999847
0,226000	0,610657	4,999847
0,227000	0,617218	4,999847
0,228000	0,607300	4,999847
0,229000	0,621033	4,268341
0,230000	0,596619	3,271637
0,231000	0,620728	4,412689
0,232000	0,609589	4,680176
0,233000	0,644531	4,999847
0,234000	0,617981	4,999847
0,235000	0,644989	4,999847
0,236000	0,626221	4,999847
0,237000	0,642548	4,999847
0,238000	0,636292	4,883270
0,239000	0,640564	4,054718
0,240000	0,641022	1,545105
0,241000	0,635834	4,694977
0,242000	0,647888	4,999847
0,243000	0,631409	4,999847
0,244000	0,650787	4,999847
0,245000	0,625763	4,999847
0,246000	0,634003	4,999847
0,247000	0,602417	4,999847
0,248000	0,643463	4,560242
0,249000	0,610809	4,761658
0,250000	0,636292	2,868195
0,251000	0,609283	3,124542
0,252000	0,627441	3,829041
0,253000	0,624390	4,999847
0,254000	0,627594	4,999847
0,255000	0,630646	4,999847
0,256000	0,615540	4,999847
0,257000	0,634918	4,999847
0,258000	0,608978	3,946686
0,259000	0,641632	3,597412
0,260000	0,603333	4,821777
0,261000	0,649567	3,655396
0,262000	0,605316	4,999847
0,263000	0,653687	4,999847
0,264000	0,615845	4,999847
0,265000	0,645905	4,999847
0,266000	0,626221	4,999847
0,267000	0,639954	4,999847
0,268000	0,637817	4,999847
0,269000	0,635376	3,987579
0,270000	0,647888	3,060303
0,271000	0,635223	3,082123
0,272000	0,660706	3,763275
0,273000	0,631104	4,999847
0,274000	0,668793	4,999847
0,275000	0,630646	4,999847
0,276000	0,677948	4,999847
0,277000	0,629120	4,999847
0,278000	0,671234	4,999847
0,279000	0,635223	3,674164
0,280000	0,662231	3,685303
0,281000	0,646057	4,502258
0,282000	0,656586	4,788055
0,283000	0,657196	4,999847
0,284000	0,648041	4,999847
0,285000	0,665436	4,999847
0,286000	0,638275	4,999847
0,287000	0,638885	4,999847
0,288000	0,606537	4,999847
0,289000	0,669250	4,281769
0,290000	0,626526	3,335724
0,291000	0,688019	2,904053
0,292000	0,632629	4,149170
0,293000	0,676575	4,999847
0,294000	0,643768	4,999847
0,295000	0,667419	4,999847
0,296000	0,655975	4,999847
0,297000	0,659332	4,999847
0,298000	0,665436	4,973297
0,299000	0,642548	3,828125
0,300000	0,671234	2,920074
0,301000	0,641327	4,365234
0,302000	0,684052	4,999847
0,303000	0,637970	4,999847
0,304000	0,694122	4,999847
0,305000	0,629730	4,999847
0,306000	0,698700	4,999847
0,307000	0,641327	4,999847
0,308000	0,687714	4,848480
0,309000	0,655975	4,340210
0,310000	0,675049	2,781372
0,311000	0,663452	4,238739
0,312000	0,661621	3,628082
0,313000	0,672913	4,977570
0,314000	0,638733	4,999847
0,315000	0,673523	4,999847
0,316000	0,634766	4,999847
0,317000	0,689850	4,999847
0,318000	0,627899	4,303284
0,319000	0,702820	3,509979
0,320000	0,632019	2,716217
0,321000	0,704346	4,989471
0,322000	0,645447	4,999847
0,323000	0,683899	4,999847
0,324000	0,654297	4,999847
0,325000	0,673065	4,999847
0,326000	0,673828	4,999847
0,327000	0,662842	4,999847
0,328000	0,690308	4,561920
0,329000	0,660248	3,350983
0,330000	0,703125	4,125366
0,331000	0,647736	2,928314
0,332000	0,713196	3,591919
0,333000	0,637054	4,999847
0,334000	0,722504	4,999847
0,335000	0,649109	4,999847
0,336000	0,720520	4,999847
0,337000	0,668488	4,999847
0,338000	0,706024	4,534149
0,339000	0,680237	3,627930
0,340000	0,682526	4,961243
0,341000	0,693054	3,230133
0,342000	0,679016	4,921112
0,343000	0,710449	4,999847
0,344000	0,670776	4,999847
0,345000	0,720520	4,999847
0,346000	0,665436	4,999847
0,347000	0,737000	4,999847
0,348000	0,642853	4,999847
0,349000	0,741425	3,671417
0,350000	0,649872	2,883759
0,351000	0,716400	3,090057
0,352000	0,664978	3,113861
0,353000	0,699768	4,999847
0,354000	0,692596	4,999847
0,355000	0,702972	4,999847
0,356000	0,716400	4,999847
0,357000	0,680695	4,999847
0,358000	0,722961	4,593964
0,359000	0,681000	3,391876
0,360000	0,743866	4,315643
0,361000	0,668335	4,999847
0,362000	0,753784	4,886932
0,363000	0,660400	4,999847
0,364000	0,762329	4,999847
0,365000	0,692291	4,999847
0,366000	0,756531	4,999847
0,367000	0,712738	4,999847
0,368000	0,741272	4,768982
0,369000	0,728149	4,106903
0,370000	0,719147	4,999847
0,371000	0,731964	2,490692
0,372000	0,697479	3,980408
0,373000	0,748291	4,999847
0,374000	0,702515	4,999847
0,375000	0,770264	4,999847
0,376000	0,699615	4,999847
0,377000	0,785217	4,999847
0,378000	0,696106	4,259186
0,379000	0,790863	3,506775
0,380000	0,714569	1,385193
0,381000	0,760498	4,610443
0,382000	0,720825	4,999847
0,383000	0,761871	4,999847
0,384000	0,747528	4,999847
0,385000	0,750885	4,999847
0,386000	0,770874	4,999847
0,387000	0,731812	4,999847
0,388000	0,779724	4,686432
0,389000	0,689545	4,478455
0,390000	0,766144	4,775238
0,391000	0,687103	3,104095
0,392000	0,795593	4,171753
0,393000	0,709076	4,999847
0,394000	0,809784	4,999847
0,395000	0,739136	4,999847
0,396000	0,794678	4,999847
0,397000	0,756226	4,999847
0,398000	0,777130	4,999847
0,399000	0,772400	2,550812
0,400000	0,753326	3,310242
0,401000	0,783539	4,138031
0,402000	0,742035	3,786316
0,403000	0,800018	4,999847
0,404000	0,725861	4,999847
0,405000	0,813904	4,999847
0,406000	0,725861	4,999847
0,407000	0,832825	4,999847
0,408000	0,744171	4,999847
0,409000	0,833282	4,228363
0,410000	0,762634	3,851013
0,411000	0,795288	3,151093
0,412000	0,769196	4,049683
0,413000	0,774841	4,999847
0,414000	0,785065	4,999847
0,415000	0,757141	4,999847
0,416000	0,800781	4,999847
0,417000	0,737915	4,999847
0,418000	0,814056	4,004059
0,419000	0,727997	2,385101
0,420000	0,830688	1,994934
0,421000	0,729370	4,617004
0,422000	0,838623	4,999847
0,423000	0,751190	4,999847
0,424000	0,815125	4,999847
0,425000	0,767975	4,999847
0,426000	0,799866	4,999847
0,427000	0,726318	4,999847
0,428000	0,725555	4,999847
0,429000	0,724792	4,576263
0,430000	0,723877	4,581451
0,431000	0,724182	2,870789
0,432000	0,843048	4,673157
0,433000	0,749054	4,999847
0,434000	0,845032	4,999847
0,435000	0,772552	4,999847
0,436000	0,822906	4,999847
0,437000	0,790863	4,999847
0,438000	0,806732	3,949432
0,439000	0,809784	4,123077
0,440000	0,789795	4,403076
0,441000	0,827179	3,829041
0,442000	0,776367	4,999847
0,443000	0,843506	4,999847
0,444000	0,760956	4,999847
0,445000	0,854492	4,999847
0,446000	0,754547	4,999847
0,447000	0,859985	4,999847
0,448000	0,772400	4,809723
0,449000	0,851440	4,573212
0,450000	0,793610	4,999847
0,451000	0,832672	3,101807
0,452000	0,813904	4,087982
0,453000	0,812531	4,997253
0,454000	0,830841	4,999847
0,455000	0,794525	4,999847
0,456000	0,845947	4,999847
0,457000	0,782471	4,999847
0,458000	0,858002	4,995728
0,459000	0,764313	3,197479
0,460000	0,863342	3,735504
0,461000	0,771484	4,788208
0,462000	0,864258	4,846191
0,463000	0,793762	4,999847
0,464000	0,855865	4,999847
0,465000	0,813293	4,999847
0,466000	0,832825	4,999847
0,467000	0,831146	4,999847
0,468000	0,815277	4,999847
0,469000	0,847473	3,842010
0,470000	0,800629	4,302368
0,471000	0,859222	3,275757
0,472000	0,783539	4,999847
0,473000	0,864716	4,999847
0,474000	0,763855	4,999847
0,475000	0,689697	4,999847
0,476000	0,655975	4,999847
0,477000	0,640411	4,999847
0,478000	0,632935	4,047089
0,479000	0,629578	2,630005
0,480000	0,628510	3,413239
0,481000	0,627289	4,649048
0,482000	0,626984	4,999847
0,483000	0,626678	4,999847
0,484000	0,626526	4,999847
0,485000	0,626221	4,999847
0,486000	0,626526	4,999847
0,487000	0,626221	4,999847
0,488000	0,626373	4,999847
0,489000	0,626373	4,380493
0,490000	0,625763	3,525391
0,491000	0,626068	3,328705
0,492000	0,605774	4,435425
0,493000	0,615082	4,999847
0,494000	0,599365	4,999847
0,495000	0,567017	4,999847
0,496000	0,554504	4,999847
0,497000	0,545959	4,873199
0,498000	0,541229	4,435730
0,499000	0,534821	3,850250
0,500000	0,533142	1,937866
0,501000	0,538177	4,040680
0,502000	0,541992	4,999847
0,503000	0,545349	4,999847
0,504000	0,545044	4,999847
0,505000	0,546570	4,999847
0,506000	0,546722	4,999847
0,507000	0,549316	4,999847
0,508000	0,550079	4,560852
0,509000	0,550232	3,776550
0,510000	0,551758	3,112640
0,511000	0,551910	4,189758
0,512000	0,550385	4,237671
0,513000	0,549164	4,999847
0,514000	0,549011	4,999847
0,515000	0,549469	4,999847
0,516000	0,550537	4,999847
0,517000	0,547791	4,999847
0,518000	0,548248	4,999847
0,519000	0,542145	3,903046
0,520000	0,536194	3,204041
0,521000	0,532532	4,999847
0,522000	0,540771	4,999847
0,523000	0,551147	4,999847
0,524000	0,561676	4,999847
0,525000	0,570831	4,999847
0,526000	0,570679	4,999847
0,527000	0,571594	4,999847
0,528000	0,568085	4,999847
0,529000	0,565796	4,457855
0,530000	0,563507	3,791351
0,531000	0,563965	3,106842
0,532000	0,564575	4,024963
0,533000	0,563965	4,999847
0,534000	0,559692	4,999847
0,535000	0,559998	4,999847
0,536000	0,557556	4,999847
0,537000	0,555725	4,999847
0,538000	0,556641	4,420776
0,539000	0,553436	3,808594
0,540000	0,551147	4,286041
0,541000	0,551300	4,519196
0,542000	0,555573	4,999847
0,543000	0,554962	4,999847
0,544000	0,554352	4,999847
0,545000	0,554199	4,999847
0,546000	0,558624	4,999847
0,547000	0,560150	4,937744
0,548000	0,561218	4,999847
0,549000	0,558929	4,446869
0,550000	0,559235	2,804871
0,551000	0,557098	4,662628
0,552000	0,559540	4,337616
0,553000	0,561523	4,999847
0,554000	0,566406	4,999847
0,555000	0,567474	4,999847
0,556000	0,564423	4,999847
0,557000	0,560913	4,999847
0,558000	0,554962	4,954376
0,559000	0,554810	3,602142
0,560000	0,554657	2,034302
0,561000	0,557098	4,999847
0,562000	0,552673	4,999847
0,563000	0,544586	4,999847
0,564000	0,543518	4,999847
0,565000	0,549164	4,999847
0,566000	0,541840	4,999847
0,567000	0,541687	4,999847
0,568000	0,538635	4,999847
0,569000	0,538940	3,770599
0,570000	0,539093	3,457794
0,571000	0,543365	3,090820
0,572000	0,544128	4,854431
0,573000	0,546265	4,999847
0,574000	0,552979	4,999847
0,575000	0,554810	4,999847
0,576000	0,558014	4,999847
0,577000	0,551147	4,727478
0,578000	0,543976	4,480438
0,579000	0,554199	3,246155
0,580000	0,558319	2,640686
0,581000	0,556488	4,999847
0,582000	0,557098	4,999847
0,583000	0,556641	4,999847
0,584000	0,554047	4,999847
0,585000	0,553284	4,999847
0,586000	0,551147	4,999847
0,587000	0,549774	4,999847
0,588000	0,550537	4,999847
0,589000	0,551147	3,422089
0,590000	0,547638	4,119720
0,591000	0,542603	3,960724
0,592000	0,548553	4,133301
0,593000	0,548248	4,999847
0,594000	0,521393	4,999847
0,595000	0,514984	4,999847
0,596000	0,533752	4,999847
0,597000	0,537262	4,977722
0,598000	0,542908	4,191589
0,599000	0,544586	3,179932
0,600000	0,550690	3,178864
0,601000	0,555878	4,578094
0,602000	0,551147	4,999847
0,603000	0,557251	4,999847
0,604000	0,550690	4,999847
0,605000	0,558014	4,999847
0,606000	0,552826	4,999847
0,607000	0,560760	4,999847
0,608000	0,556641	4,999847
0,609000	0,562439	3,630676
0,610000	0,559235	4,339294
0,611000	0,558014	2,791138
0,612000	0,566254	4,689178
0,613000	0,563812	4,999847
0,614000	0,568390	4,999847
0,615000	0,567017	4,999847
0,616000	0,577545	4,999847
0,617000	0,570526	4,999847
0,618000	0,583038	4,905701
0,619000	0,573883	3,193054
0,620000	0,588531	3,056793
0,621000	0,571594	4,999847
0,622000	0,584564	4,892578
0,623000	0,563812	4,999847
0,624000	0,569611	4,999847
0,625000	0,552368	4,999847
0,626000	0,554199	4,999847
0,627000	0,553284	4,999847
0,628000	0,544891	4,999847
0,629000	0,560913	3,748474
0,630000	0,549011	3,783569
0,631000	0,575409	3,997040
0,632000	0,563812	4,025421
0,633000	0,589752	4,999847
0,634000	0,572510	4,999847
0,635000	0,599670	4,999847
0,636000	0,580750	4,999847
0,637000	0,597839	4,999847
0,638000	0,587158	4,910736
0,639000	0,596008	2,980347
0,640000	0,589600	4,329987
0,641000	0,586853	4,999847
0,642000	0,591278	4,999847
0,643000	0,582733	4,999847
0,644000	0,599976	4,999847
0,645000	0,587311	4,999847
0,646000	0,608978	4,999847
0,647000	0,590210	4,999847
0,648000	0,616608	4,999847
0,649000	0,590057	3,781281
0,650000	0,618439	4,195251
0,651000	0,599365	4,023285
0,652000	0,614777	4,486389
0,653000	0,604401	4,999847
0,654000	0,610962	4,999847
0,655000	0,612030	4,999847
0,656000	0,608368	4,999847
0,657000	0,617981	4,999847
0,658000	0,609894	4,850616
0,659000	0,625000	2,947388
0,660000	0,606232	3,218536
0,661000	0,631256	4,999847
0,662000	0,604095	4,999847
0,663000	0,636292	4,999847
0,664000	0,603180	4,999847
0,665000	0,632782	4,999847
0,666000	0,612640	4,999847
0,667000	0,630188	4,999847
0,668000	0,619202	4,999847
0,669000	0,627594	3,907623
0,670000	0,630035	4,373779
0,671000	0,619659	3,775635
0,672000	0,634003	4,770203
0,673000	0,616150	4,999847
0,674000	0,638580	4,999847
0,675000	0,604858	4,999847
0,676000	0,642090	4,999847
0,677000	0,597992	4,999847
0,678000	0,645599	4,711304
0,679000	0,599518	3,354950
0,680000	0,634308	3,079376
0,681000	0,603333	4,999847
0,682000	0,625000	4,999847
0,683000	0,617065	4,999847
0,684000	0,610657	4,999847
0,685000	0,616302	4,999847
0,686000	0,596924	4,999847
0,687000	0,622559	4,999847
0,688000	0,586243	4,696045
0,689000	0,632935	4,262848
0,690000	0,577087	2,281036
0,691000	0,640259	4,761353
0,692000	0,567017	4,999847
0,693000	0,638580	4,999847
0,694000	0,590973	4,999847
0,695000	0,633545	4,999847
0,696000	0,597229	4,999847
0,697000	0,583649	4,999847
0,698000	0,600128	4,946289
0,699000	0,608368	2,460632
0,700000	0,629425	2,966919
0,701000	0,618286	4,407043
0,702000	0,652618	4,961853
0,703000	0,622253	4,999847
0,704000	0,667267	4,999847
0,705000	0,614471	4,999847
0,706000	0,673676	4,999847
0,707000	0,610657	4,999847
0,708000	0,666809	4,999847
0,709000	0,618286	4,042816
0,710000	0,653992	3,578186
0,711000	0,636444	3,029327
0,712000	0,654449	4,999847
0,713000	0,659485	4,999847
0,714000	0,656586	4,999847
0,715000	0,676727	4,999847
0,716000	0,654144	4,999847
0,717000	0,686188	4,999847
0,718000	0,648956	4,176178
0,719000	0,694275	3,585205
0,720000	0,646973	1,654663
0,721000	0,704498	4,086151
0,722000	0,655212	4,999847
0,723000	0,699921	4,999847
0,724000	0,667572	4,999847
0,725000	0,690308	4,999847
0,726000	0,677795	4,999847
0,727000	0,683441	4,999847
0,728000	0,688324	4,999847
0,729000	0,676880	3,959503
0,730000	0,697174	3,865204
0,731000	0,668335	3,913269
0,732000	0,702515	4,469604
0,733000	0,664215	4,967957
0,734000	0,717010	4,999847
0,735000	0,659332	4,999847
0,736000	0,722961	4,999847
0,737000	0,670013	4,999847
0,738000	0,711212	4,606628
0,739000	0,680542	3,195190
0,740000	0,698853	2,787323
0,741000	0,691071	4,999847
0,742000	0,692444	4,999847
0,743000	0,703735	4,999847
0,744000	0,670624	4,999847
0,745000	0,704956	4,999847
0,746000	0,657806	4,999847
0,747000	0,714722	4,999847
0,748000	0,648041	4,776917
0,749000	0,723419	4,098206
0,750000	0,646820	3,749237
0,751000	0,722809	3,942719
0,752000	0,666962	4,792786
0,753000	0,711365	4,999847
0,754000	0,681152	4,999847
0,755000	0,697327	4,999847
0,756000	0,695038	4,999847
0,757000	0,687714	4,803619
0,758000	0,710602	3,984375
0,759000	0,675812	2,947083
0,760000	0,722046	3,830719
0,761000	0,667572	4,999847
0,762000	0,734863	4,999847
0,763000	0,661774	4,999847
0,764000	0,747223	4,999847
0,765000	0,667114	4,999847
0,766000	0,733337	4,999847
0,767000	0,674591	4,999847
0,768000	0,715637	4,999847
0,769000	0,690155	3,916168
0,770000	0,701141	3,350525
0,771000	0,707397	3,246307
0,772000	0,689850	4,606476
0,773000	0,725403	4,999847
0,774000	0,675659	4,999847
0,775000	0,735626	4,999847
0,776000	0,664978	4,999847
0,777000	0,748444	4,999847
0,778000	0,649872	4,160614
0,779000	0,757141	2,766113
0,780000	0,667725	4,316406
0,781000	0,739746	4,999847
0,782000	0,684052	4,999847
0,783000	0,722809	4,999847
0,784000	0,705261	4,999847
0,785000	0,707550	4,999847
0,786000	0,726166	4,999847
0,787000	0,699310	4,999847
0,788000	0,741119	4,999847
0,789000	0,684967	4,096680
0,790000	0,756989	4,727325
0,791000	0,662384	3,796997
0,792000	0,764618	4,999847
0,793000	0,626221	4,999847
0,794000	0,726776	4,999847
0,795000	0,646057	4,999847
0,796000	0,709229	4,999847
0,797000	0,670013	4,999847
0,798000	0,701294	4,999847
0,799000	0,668640	3,397980
0,800000	0,669403	3,418884
0,801000	0,704041	4,916382
0,802000	0,667572	4,999847
0,803000	0,725403	4,999847
0,804000	0,657501	4,999847
0,805000	0,740814	4,999847
0,806000	0,649261	4,999847
0,807000	0,755768	4,820862
0,808000	0,659485	4,990387
0,809000	0,748596	3,929138
0,810000	0,673218	3,224487
0,811000	0,733948	4,587097
0,812000	0,703125	4,495697
0,813000	0,722198	4,999847
0,814000	0,723114	4,999847
0,815000	0,701599	4,999847
0,816000	0,736237	4,999847
0,817000	0,686035	4,999847
0,818000	0,751343	4,999847
0,819000	0,680695	3,200378
0,820000	0,769043	2,300873
0,821000	0,671234	4,999847
0,822000	0,783234	4,999847
0,823000	0,684967	4,999847
0,824000	0,771790	4,999847
0,825000	0,707550	4,999847
0,826000	0,757141	4,999847
0,827000	0,730591	4,596252
0,828000	0,733948	4,999847
0,829000	0,744476	3,004456
0,830000	0,717316	3,751221
0,831000	0,760803	4,581451
0,832000	0,701141	4,643250
0,833000	0,775452	4,999847
0,834000	0,697327	4,999847
0,835000	0,794067	4,999847
0,836000	0,688629	4,999847
0,837000	0,807190	4,883575
0,838000	0,715790	4,999847
0,839000	0,793304	2,726288
0,840000	0,736542	4,000092
0,841000	0,776062	4,999847
0,842000	0,756683	4,999847
0,843000	0,758820	4,999847
0,844000	0,773926	4,999847
0,845000	0,744324	4,999847
0,846000	0,791321	4,999847
0,847000	0,727997	4,999847
0,848000	0,806274	4,999847
0,849000	0,709686	3,598480
0,850000	0,818176	3,853760
0,851000	0,714569	4,188843
0,852000	0,820160	4,999847
0,853000	0,737762	4,999847
0,854000	0,798035	4,999847
0,855000	0,757294	4,999847
0,856000	0,785370	4,999847
0,857000	0,779724	4,999847
0,858000	0,793304	4,931488
0,859000	0,813751	2,844543
0,860000	0,749359	2,693329
0,861000	0,813293	4,999847
0,862000	0,844574	4,999847
0,863000	0,830536	4,999847
0,864000	0,748749	4,999847
0,865000	0,736694	4,999847
0,866000	0,736237	4,999847
0,867000	0,731201	4,999847
0,868000	0,764771	4,999847
0,869000	0,832062	3,467712
0,870000	0,787811	4,886017
0,871000	0,816956	3,362579
0,872000	0,809631	4,421234
0,873000	0,800629	4,999847
0,874000	0,828705	4,999847
0,875000	0,782318	4,999847
0,876000	0,844116	4,999847
0,877000	0,765381	4,999847
0,878000	0,857086	4,083405
0,879000	0,753937	2,931671
0,880000	0,869141	3,518066
0,881000	0,774078	4,776001
0,882000	0,867767	4,999847
0,883000	0,796051	4,999847
0,884000	0,848541	4,999847
0,885000	0,813599	4,999847
0,886000	0,824127	4,999847
0,887000	0,831146	4,999847
0,888000	0,804596	4,797058
0,889000	0,846405	2,994232
0,890000	0,790405	3,959656
0,891000	0,860443	3,024445
0,892000	0,775146	4,996490
0,893000	0,869598	4,999847
0,894000	0,767975	4,999847
0,895000	0,872650	4,999847
0,896000	0,791779	4,999847
0,897000	0,868073	4,999847
0,898000	0,813446	4,110107
0,899000	0,847321	2,812958
0,900000	0,833588	4,401550
0,901000	0,825043	4,754028
0,902000	0,833282	4,999847
0,903000	0,804443	4,999847
0,904000	0,858307	4,999847
0,905000	0,792847	4,999847
0,906000	0,867310	4,999847
0,907000	0,778351	4,999847
0,908000	0,871124	4,446716
0,909000	0,782318	4,019318
0,910000	0,869904	4,999847
0,911000	0,752258	4,030151
0,912000	0,685577	4,999847
0,913000	0,655365	4,999847
0,914000	0,641479	4,999847
0,915000	0,634766	4,999847
0,916000	0,631714	4,999847
0,917000	0,630493	4,999847
0,918000	0,629425	4,424591
0,919000	0,629272	2,312164
0,920000	0,628967	3,903351
0,921000	0,628510	4,999847
0,922000	0,628662	4,999847
0,923000	0,628510	4,999847
0,924000	0,628357	4,999847
0,925000	0,628204	4,999847
0,926000	0,628357	4,999847
0,927000	0,628357	4,999847
0,928000	0,628510	4,503326
0,929000	0,628357	3,260651
0,930000	0,628357	4,024200
0,931000	0,628204	3,924103
0,932000	0,601501	4,999847
0,933000	0,578308	4,999847
0,934000	0,565186	4,999847
0,935000	0,561218	4,999847
0,936000	0,561371	4,999847
0,937000	0,561371	4,878540
0,938000	0,559845	3,715668
0,939000	0,560303	2,796478
0,940000	0,558319	3,150024
0,941000	0,557404	4,585876
0,942000	0,551910	4,999847
0,943000	0,549927	4,999847
0,944000	0,550385	4,999847
0,945000	0,553894	4,999847
0,946000	0,555725	4,999847
0,947000	0,556030	4,999847
0,948000	0,556946	4,694519
0,949000	0,555725	3,763580
0,950000	0,556030	2,869873
0,951000	0,557709	3,155212
0,952000	0,556793	4,999847
0,953000	0,553894	4,999847
0,954000	0,554504	4,999847
0,955000	0,551605	4,999847
0,956000	0,552979	4,999847
0,957000	0,550385	4,999847
0,958000	0,549011	3,751831
0,959000	0,550690	2,945099
0,960000	0,545959	3,857269
0,961000	0,547943	4,999847
0,962000	0,549011	4,999847
0,963000	0,550690	4,999847
0,964000	0,547791	4,999847
0,965000	0,547943	4,999847
0,966000	0,547180	4,999847
0,967000	0,549164	4,999847
0,968000	0,548096	4,999847
0,969000	0,554047	3,927002
0,970000	0,554504	4,999847
0,971000	0,557404	3,714447
0,972000	0,558167	4,612579
0,973000	0,558319	4,999847
0,974000	0,558014	4,999847
0,975000	0,555725	4,999847
0,976000	0,554047	4,999847
0,977000	0,550690	4,966583
0,978000	0,551147	3,864746
0,979000	0,544586	2,916260
0,980000	0,544739	4,047546
0,981000	0,544434	4,999847
0,982000	0,547791	4,999847
0,983000	0,543213	4,999847
0,984000	0,543365	4,999847
0,985000	0,542450	4,999847
0,986000	0,544891	4,999847
0,987000	0,543213	4,999847
0,988000	0,543060	4,498901
0,989000	0,542908	3,760986
0,990000	0,539093	4,677887
0,991000	0,537415	3,832703
0,992000	0,537109	4,999847
0,993000	0,541840	4,999847
0,994000	0,544739	4,999847
0,995000	0,547333	4,999847
0,996000	0,546570	4,999847
0,997000	0,549927	4,999847
0,998000	0,549774	3,952026
0,999000	0,549774	2,860565

