LabVIEW Measurement	
Writer_Version	2
Reader_Version	2
Separator	Tab
Decimal_Separator	,
Multi_Headings	Yes
X_Columns	One
Time_Pref	Absolute
Operator	d.nicolai
Date	2023/11/09
Time	16:04:05,6565121999996605588
***End_of_Header***	
	
Channels	2		
Samples	1000	1000	
Date	2023/11/09	2023/11/09	
Time	16:04:43,935512799999516094	16:04:43,935512799999516094	
Y_Unit_Label	Volts	Volts	
X_Dimension	Time	Time	
X0	0,0000000000000000E+0	0,0000000000000000E+0	
Delta_X	0,001000	0,001000	
***End_of_Header***			
X_Value	powebox	triggerbox	Comment
0,000000	0,710144	0,938721
0,001000	0,688477	4,738922
0,002000	0,728760	4,999847
0,003000	0,678101	4,999847
0,004000	0,745697	4,999847
0,005000	0,666809	4,999847
0,006000	0,760651	4,999847
0,007000	0,656281	4,999847
0,008000	0,772095	4,999847
0,009000	0,675354	4,198456
0,010000	0,751343	3,039246
0,011000	0,696564	3,530884
0,012000	0,726166	4,159393
0,013000	0,713654	4,999847
0,014000	0,715027	4,999847
0,015000	0,735168	4,999847
0,016000	0,698853	4,999847
0,017000	0,751495	4,999847
0,018000	0,689240	4,248505
0,019000	0,767670	4,093933
0,020000	0,677795	4,078217
0,021000	0,782471	3,878174
0,022000	0,673523	4,999847
0,023000	0,780640	4,999847
0,024000	0,696106	4,999847
0,025000	0,763855	4,999847
0,026000	0,720673	4,999847
0,027000	0,749512	4,999847
0,028000	0,742187	4,999847
0,029000	0,731964	4,447937
0,030000	0,760040	2,499695
0,031000	0,715637	4,223938
0,032000	0,775604	4,058838
0,033000	0,701141	4,999847
0,034000	0,790253	4,999847
0,035000	0,694275	4,999847
0,036000	0,806732	4,999847
0,037000	0,701141	4,666138
0,038000	0,798035	4,399109
0,039000	0,724182	3,865356
0,040000	0,781403	2,476959
0,041000	0,747528	3,891296
0,042000	0,767975	4,237518
0,043000	0,768280	4,999847
0,044000	0,755005	4,999847
0,045000	0,788574	4,999847
0,046000	0,740509	4,999847
0,047000	0,804901	4,999847
0,048000	0,734253	4,898529
0,049000	0,823822	4,142761
0,050000	0,719757	3,690491
0,051000	0,838013	3,595276
0,052000	0,738373	3,863831
0,053000	0,831451	4,999847
0,054000	0,760345	4,999847
0,055000	0,815277	4,999847
0,056000	0,782166	4,999847
0,057000	0,799866	4,999847
0,058000	0,802307	4,999847
0,059000	0,789948	3,205109
0,060000	0,823059	4,993134
0,061000	0,767670	3,546448
0,062000	0,836182	4,999847
0,063000	0,757141	4,999847
0,064000	0,853577	4,999847
0,065000	0,749817	4,999847
0,066000	0,868073	4,999847
0,067000	0,772705	4,999847
0,068000	0,861511	4,819336
0,069000	0,793762	3,931580
0,070000	0,834808	4,999847
0,071000	0,809479	3,523407
0,072000	0,821075	3,807526
0,073000	0,780792	4,999847
0,074000	0,744324	4,999847
0,075000	0,783386	4,999847
0,076000	0,764160	4,999847
0,077000	0,851593	4,999847
0,078000	0,770569	4,999847
0,079000	0,876465	2,829132
0,080000	0,772858	4,821930
0,081000	0,884247	4,154053
0,082000	0,798187	4,449463
0,083000	0,872803	4,999847
0,084000	0,818024	4,999847
0,085000	0,847778	4,999847
0,086000	0,835266	4,999847
0,087000	0,832214	4,999847
0,088000	0,853729	4,567719
0,089000	0,812836	3,891907
0,090000	0,869751	4,220428
0,091000	0,799713	3,456116
0,092000	0,883789	4,631042
0,093000	0,781403	4,999847
0,094000	0,890656	4,999847
0,095000	0,796661	4,999847
0,096000	0,890656	4,999847
0,097000	0,815887	4,999847
0,098000	0,857697	4,881592
0,099000	0,829163	2,895050
0,100000	0,856018	2,618408
0,101000	0,857391	4,503937
0,102000	0,835114	4,999847
0,103000	0,873108	4,999847
0,104000	0,810699	4,999847
0,105000	0,882568	4,999847
0,106000	0,796814	4,999847
0,107000	0,891724	4,999847
0,108000	0,786896	4,999847
0,109000	0,894318	4,379730
0,110000	0,805359	4,232483
0,111000	0,884094	3,200226
0,112000	0,827789	3,534393
0,113000	0,864716	4,999847
0,114000	0,849304	4,999847
0,115000	0,840607	4,999847
0,116000	0,737610	4,999847
0,117000	0,689545	4,999847
0,118000	0,667725	4,594421
0,119000	0,657654	2,891388
0,120000	0,652771	3,314972
0,121000	0,650330	4,564972
0,122000	0,649109	4,999847
0,123000	0,648499	4,999847
0,124000	0,648499	4,999847
0,125000	0,648041	4,999847
0,126000	0,648041	4,999847
0,127000	0,647583	4,999847
0,128000	0,647125	4,295959
0,129000	0,647125	3,390656
0,130000	0,647278	4,072876
0,131000	0,647736	4,589233
0,132000	0,647125	4,108582
0,133000	0,647125	4,999847
0,134000	0,646973	4,999847
0,135000	0,646667	4,999847
0,136000	0,646820	4,999847
0,137000	0,623932	4,999847
0,138000	0,592346	3,871918
0,139000	0,578003	2,468719
0,140000	0,570374	3,702240
0,141000	0,558167	3,420868
0,142000	0,554504	4,999847
0,143000	0,554047	4,999847
0,144000	0,554962	4,999847
0,145000	0,550842	4,999847
0,146000	0,553894	4,999847
0,147000	0,551300	4,999847
0,148000	0,549469	4,654846
0,149000	0,545349	3,951569
0,150000	0,544891	3,989105
0,151000	0,545044	3,251343
0,152000	0,540161	4,107666
0,153000	0,538483	4,999847
0,154000	0,541534	4,999847
0,155000	0,554352	4,999847
0,156000	0,554810	4,999847
0,157000	0,548706	4,999847
0,158000	0,542908	4,349670
0,159000	0,541382	3,262634
0,160000	0,540161	2,293396
0,161000	0,545959	4,314270
0,162000	0,550690	4,708405
0,163000	0,551910	4,999847
0,164000	0,544739	4,999847
0,165000	0,545959	4,999847
0,166000	0,547638	4,999847
0,167000	0,543365	4,999847
0,168000	0,544434	4,046783
0,169000	0,542755	3,925018
0,170000	0,548248	4,667816
0,171000	0,547791	1,955872
0,172000	0,550842	3,562317
0,173000	0,545807	4,999847
0,174000	0,547943	4,999847
0,175000	0,515747	4,999847
0,176000	0,491486	4,999847
0,177000	0,513306	4,999847
0,178000	0,528412	3,948364
0,179000	0,533447	3,441162
0,180000	0,542755	2,627411
0,181000	0,548248	4,999847
0,182000	0,553894	4,999847
0,183000	0,552979	4,999847
0,184000	0,549927	4,999847
0,185000	0,550537	4,999847
0,186000	0,548096	4,999847
0,187000	0,552521	4,999847
0,188000	0,550537	4,999847
0,189000	0,550079	4,140472
0,190000	0,545959	4,672089
0,191000	0,551300	4,352722
0,192000	0,546265	4,999847
0,193000	0,550537	4,999847
0,194000	0,549774	4,999847
0,195000	0,550385	4,999847
0,196000	0,549316	4,999847
0,197000	0,548859	4,999847
0,198000	0,547943	4,078674
0,199000	0,546722	3,981476
0,200000	0,547485	4,006805
0,201000	0,545502	3,792114
0,202000	0,548096	4,982910
0,203000	0,545502	4,999847
0,204000	0,549774	4,999847
0,205000	0,550079	4,999847
0,206000	0,552673	4,999847
0,207000	0,552979	4,999847
0,208000	0,558777	4,927673
0,209000	0,561066	4,652557
0,210000	0,561066	4,264374
0,211000	0,551453	3,811188
0,212000	0,547485	4,251862
0,213000	0,552063	4,999847
0,214000	0,552979	4,999847
0,215000	0,549927	4,999847
0,216000	0,546112	4,999847
0,217000	0,551453	4,910431
0,218000	0,553894	4,885864
0,219000	0,553131	3,179169
0,220000	0,551300	2,749939
0,221000	0,552826	4,999847
0,222000	0,553741	4,999847
0,223000	0,556488	4,999847
0,224000	0,553436	4,999847
0,225000	0,549927	4,999847
0,226000	0,547180	4,999847
0,227000	0,547638	4,999847
0,228000	0,547638	4,999847
0,229000	0,550232	3,642120
0,230000	0,547791	4,999847
0,231000	0,549622	3,894958
0,232000	0,549164	4,626007
0,233000	0,552673	4,999847
0,234000	0,548401	4,999847
0,235000	0,553436	4,999847
0,236000	0,553589	4,999847
0,237000	0,555267	4,999847
0,238000	0,554810	4,999847
0,239000	0,556335	3,355560
0,240000	0,555878	4,616241
0,241000	0,558319	4,121399
0,242000	0,563202	4,999847
0,243000	0,558624	4,999847
0,244000	0,561371	4,999847
0,245000	0,554962	4,999847
0,246000	0,563354	4,999847
0,247000	0,559387	4,999847
0,248000	0,567780	4,999847
0,249000	0,559692	4,318085
0,250000	0,564117	2,517242
0,251000	0,558014	4,165497
0,252000	0,564575	4,132233
0,253000	0,565796	4,999847
0,254000	0,569458	4,999847
0,255000	0,571747	4,999847
0,256000	0,568237	4,999847
0,257000	0,569763	4,999847
0,258000	0,565491	4,999847
0,259000	0,573273	3,135834
0,260000	0,562897	3,238831
0,261000	0,575104	4,416656
0,262000	0,550842	4,999847
0,263000	0,573273	4,999847
0,264000	0,556793	4,999847
0,265000	0,573425	4,999847
0,266000	0,568390	4,999847
0,267000	0,576324	4,999847
0,268000	0,576477	4,999847
0,269000	0,585022	3,402405
0,270000	0,589752	3,191071
0,271000	0,586090	3,239594
0,272000	0,593719	3,801575
0,273000	0,581512	4,999847
0,274000	0,596771	4,999847
0,275000	0,583038	4,999847
0,276000	0,601959	4,999847
0,277000	0,576324	4,999847
0,278000	0,554962	4,999847
0,279000	0,576935	2,794952
0,280000	0,607452	3,442688
0,281000	0,606384	3,650970
0,282000	0,614777	3,997498
0,283000	0,613556	4,999847
0,284000	0,613708	4,999847
0,285000	0,621185	4,999847
0,286000	0,611877	4,999847
0,287000	0,625916	4,999847
0,288000	0,610352	4,999847
0,289000	0,631409	4,178162
0,290000	0,606232	3,267059
0,291000	0,635834	4,187469
0,292000	0,594482	4,945221
0,293000	0,627747	4,999847
0,294000	0,606232	4,999847
0,295000	0,623322	4,999847
0,296000	0,613098	4,999847
0,297000	0,620117	4,999847
0,298000	0,622864	4,999847
0,299000	0,617218	3,693695
0,300000	0,631409	2,117157
0,301000	0,617371	4,999847
0,302000	0,640106	4,271545
0,303000	0,618591	4,999847
0,304000	0,648499	4,999847
0,305000	0,620728	4,999847
0,306000	0,655212	4,999847
0,307000	0,603027	4,999847
0,308000	0,627289	4,999847
0,309000	0,611267	3,977509
0,310000	0,622253	4,425049
0,311000	0,617371	2,931061
0,312000	0,620117	3,865356
0,313000	0,629730	4,999847
0,314000	0,624695	4,999847
0,315000	0,641022	4,999847
0,316000	0,621948	4,999847
0,317000	0,646210	4,999847
0,318000	0,616913	4,999847
0,319000	0,649872	3,539124
0,320000	0,613708	4,270630
0,321000	0,651703	4,465790
0,322000	0,616302	4,999847
0,323000	0,641785	4,999847
0,324000	0,623779	4,999847
0,325000	0,636597	4,999847
0,326000	0,634766	4,999847
0,327000	0,631104	4,999847
0,328000	0,643158	4,598999
0,329000	0,630188	3,455811
0,330000	0,652771	4,742584
0,331000	0,619659	2,817230
0,332000	0,654907	3,928223
0,333000	0,611877	4,999847
0,334000	0,660858	4,999847
0,335000	0,615234	4,999847
0,336000	0,659637	4,999847
0,337000	0,623627	4,999847
0,338000	0,649567	4,560394
0,339000	0,636749	2,722931
0,340000	0,646515	2,657013
0,341000	0,646820	3,702698
0,342000	0,639954	4,896088
0,343000	0,656586	4,999847
0,344000	0,625305	4,999847
0,345000	0,657196	4,999847
0,346000	0,615387	4,999847
0,347000	0,665131	4,999847
0,348000	0,607605	4,999847
0,349000	0,672302	4,427338
0,350000	0,613708	4,488068
0,351000	0,662537	2,520142
0,352000	0,630798	4,036865
0,353000	0,655212	4,999847
0,354000	0,643005	4,999847
0,355000	0,645905	4,999847
0,356000	0,651550	4,999847
0,357000	0,635681	4,999847
0,358000	0,662689	4,865723
0,359000	0,630188	3,692017
0,360000	0,672913	3,580170
0,361000	0,627289	4,948425
0,362000	0,684814	4,999847
0,363000	0,628815	4,999847
0,364000	0,691528	4,999847
0,365000	0,640564	4,999847
0,366000	0,684967	4,999847
0,367000	0,660706	4,999847
0,368000	0,691986	4,882965
0,369000	0,682068	3,937531
0,370000	0,676117	4,537964
0,371000	0,686493	3,380737
0,372000	0,662994	3,847504
0,373000	0,700836	4,999847
0,374000	0,653534	4,999847
0,375000	0,709686	4,999847
0,376000	0,631256	4,999847
0,377000	0,714569	4,999847
0,378000	0,635529	4,401245
0,379000	0,713654	3,172150
0,380000	0,612183	3,105774
0,381000	0,658264	3,835297
0,382000	0,649567	4,999847
0,383000	0,673981	4,999847
0,384000	0,676270	4,999847
0,385000	0,666809	4,999847
0,386000	0,694122	4,999847
0,387000	0,654144	4,999847
0,388000	0,706177	4,725647
0,389000	0,638123	4,643097
0,390000	0,717621	2,938538
0,391000	0,633087	4,999847
0,392000	0,732117	3,238525
0,393000	0,637360	4,999847
0,394000	0,682373	4,999847
0,395000	0,622101	4,999847
0,396000	0,661774	4,999847
0,397000	0,639496	4,999847
0,398000	0,653229	4,177399
0,399000	0,664978	3,536377
0,400000	0,647278	4,322357
0,401000	0,683746	3,369598
0,402000	0,636597	4,539337
0,403000	0,699615	4,999847
0,404000	0,632782	4,999847
0,405000	0,716705	4,999847
0,406000	0,624237	4,999847
0,407000	0,722809	4,999847
0,408000	0,641022	4,999847
0,409000	0,701294	4,012299
0,410000	0,649567	4,031219
0,411000	0,677643	3,653412
0,412000	0,666046	4,114532
0,413000	0,661926	4,999847
0,414000	0,683746	4,999847
0,415000	0,647888	4,999847
0,416000	0,699158	4,999847
0,417000	0,637665	4,999847
0,418000	0,714569	4,999847
0,419000	0,628052	3,515167
0,420000	0,729218	4,582062
0,421000	0,623932	2,254944
0,422000	0,726318	4,524994
0,423000	0,646820	4,999847
0,424000	0,705872	4,999847
0,425000	0,667267	4,999847
0,426000	0,694427	4,999847
0,427000	0,686493	4,999847
0,428000	0,672150	4,999847
0,429000	0,703888	4,676208
0,430000	0,658264	2,817535
0,431000	0,719452	3,796997
0,432000	0,645752	3,242950
0,433000	0,734711	4,999847
0,434000	0,636749	4,999847
0,435000	0,749969	4,999847
0,436000	0,643768	4,999847
0,437000	0,736542	4,999847
0,438000	0,667572	4,245605
0,439000	0,713348	4,113007
0,440000	0,686951	2,907715
0,441000	0,696411	4,817963
0,442000	0,706482	4,999847
0,443000	0,682983	4,999847
0,444000	0,725250	4,999847
0,445000	0,671082	4,999847
0,446000	0,741882	4,999847
0,447000	0,660400	4,999847
0,448000	0,757141	4,999847
0,449000	0,650635	4,621735
0,450000	0,766296	3,404999
0,451000	0,668945	4,279938
0,452000	0,758820	4,303436
0,453000	0,700684	4,999847
0,454000	0,744324	4,999847
0,455000	0,722961	4,999847
0,456000	0,721741	4,999847
0,457000	0,738068	4,999847
0,458000	0,709686	4,998474
0,459000	0,756683	3,792267
0,460000	0,696259	4,216461
0,461000	0,772705	3,359222
0,462000	0,680084	4,999847
0,463000	0,785675	4,999847
0,464000	0,676575	4,999847
0,465000	0,793762	4,999847
0,466000	0,701752	4,999847
0,467000	0,767822	4,999847
0,468000	0,722351	4,999847
0,469000	0,749817	4,624329
0,470000	0,742798	4,306793
0,471000	0,735016	3,473358
0,472000	0,760956	3,833771
0,473000	0,719452	4,999847
0,474000	0,779114	4,999847
0,475000	0,707550	4,999847
0,476000	0,793152	4,999847
0,477000	0,694580	4,999847
0,478000	0,806122	4,129486
0,479000	0,695496	4,376526
0,480000	0,788422	2,981110
0,481000	0,720062	4,569702
0,482000	0,761719	4,999847
0,483000	0,713806	4,999847
0,484000	0,741730	4,999847
0,485000	0,756683	4,999847
0,486000	0,738220	4,999847
0,487000	0,780487	4,999847
0,488000	0,729065	4,999847
0,489000	0,799103	4,569244
0,490000	0,719452	3,528900
0,491000	0,815430	3,641663
0,492000	0,709381	3,966370
0,493000	0,824127	4,999847
0,494000	0,723419	4,999847
0,495000	0,821533	4,999847
0,496000	0,755005	4,999847
0,497000	0,812073	4,999847
0,498000	0,780792	4,426422
0,499000	0,794678	4,289398
0,500000	0,799561	0,977783
0,501000	0,777130	4,999847
0,502000	0,817108	4,999847
0,503000	0,764160	4,999847
0,504000	0,835571	4,999847
0,505000	0,750885	4,999847
0,506000	0,852051	4,999847
0,507000	0,740967	4,999847
0,508000	0,865479	4,999847
0,509000	0,766296	4,186554
0,510000	0,854034	1,450043
0,511000	0,789795	4,999847
0,512000	0,833740	3,591919
0,513000	0,809174	4,999847
0,514000	0,815277	4,999847
0,515000	0,828552	4,999847
0,516000	0,798645	4,999847
0,517000	0,846405	4,999847
0,518000	0,782623	4,999847
0,519000	0,862579	3,277588
0,520000	0,773163	2,359314
0,521000	0,878754	4,048462
0,522000	0,774231	4,999847
0,523000	0,887604	4,999847
0,524000	0,799866	4,999847
0,525000	0,874481	4,999847
0,526000	0,819244	4,999847
0,527000	0,855865	4,999847
0,528000	0,839996	4,999847
0,529000	0,839233	3,433533
0,530000	0,859985	1,547852
0,531000	0,820465	4,701385
0,532000	0,874634	3,242035
0,533000	0,809479	4,999847
0,534000	0,887909	4,999847
0,535000	0,797577	4,999847
0,536000	0,894470	4,999847
0,537000	0,806427	4,999847
0,538000	0,895081	4,444885
0,539000	0,824280	3,653717
0,540000	0,888367	2,749176
0,541000	0,846100	4,986572
0,542000	0,869293	4,999847
0,543000	0,865326	4,999847
0,544000	0,852356	4,999847
0,545000	0,881805	4,999847
0,546000	0,830231	4,999847
0,547000	0,889587	4,999847
0,548000	0,815125	4,999847
0,549000	0,895386	4,093170
0,550000	0,802460	3,709412
0,551000	0,718384	4,542542
0,552000	0,679932	4,290619
0,553000	0,661774	4,999847
0,554000	0,654144	4,999847
0,555000	0,650635	4,999847
0,556000	0,648346	4,999847
0,557000	0,647430	4,999847
0,558000	0,646820	4,999847
0,559000	0,647125	3,145142
0,560000	0,646515	2,998810
0,561000	0,646362	4,975281
0,562000	0,646515	4,503326
0,563000	0,646210	4,999847
0,564000	0,646667	4,999847
0,565000	0,646210	4,999847
0,566000	0,646210	4,999847
0,567000	0,646210	4,999847
0,568000	0,646057	4,999847
0,569000	0,645905	3,401184
0,570000	0,645599	4,999847
0,571000	0,645752	4,251862
0,572000	0,646515	3,793030
0,573000	0,646210	4,999847
0,574000	0,646057	4,999847
0,575000	0,610199	4,999847
0,576000	0,589752	4,999847
0,577000	0,577850	4,999847
0,578000	0,570831	4,999847
0,579000	0,563507	3,813477
0,580000	0,563354	3,268433
0,581000	0,564117	3,729553
0,582000	0,565186	4,248352
0,583000	0,565796	4,999847
0,584000	0,563202	4,999847
0,585000	0,520172	4,999847
0,586000	0,536194	4,999847
0,587000	0,555573	4,999847
0,588000	0,561676	4,999847
0,589000	0,565948	4,716644
0,590000	0,571594	4,323883
0,591000	0,574341	4,162292
0,592000	0,574188	3,113403
0,593000	0,576324	4,999847
0,594000	0,576630	4,999847
0,595000	0,579071	4,999847
0,596000	0,575867	4,999847
0,597000	0,572052	4,999847
0,598000	0,572357	4,607086
0,599000	0,570831	4,014282
0,600000	0,569611	3,719482
0,601000	0,565186	3,775787
0,602000	0,568390	4,999847
0,603000	0,570679	4,999847
0,604000	0,573578	4,999847
0,605000	0,576935	4,999847
0,606000	0,574493	4,999847
0,607000	0,571594	4,999847
0,608000	0,568237	4,999847
0,609000	0,560608	3,079834
0,610000	0,554199	3,250732
0,611000	0,551147	3,573151
0,612000	0,546722	3,826294
0,613000	0,545197	4,999847
0,614000	0,536957	4,999847
0,615000	0,535736	4,999847
0,616000	0,535736	4,999847
0,617000	0,537415	4,999847
0,618000	0,526428	4,498749
0,619000	0,531464	3,806305
0,620000	0,525970	3,876343
0,621000	0,530090	3,760681
0,622000	0,525208	4,999847
0,623000	0,528717	4,999847
0,624000	0,530853	4,999847
0,625000	0,532684	4,999847
0,626000	0,518646	4,999847
0,627000	0,517578	4,999847
0,628000	0,524597	4,999847
0,629000	0,524139	4,142151
0,630000	0,494080	3,813019
0,631000	0,497284	3,522797
0,632000	0,448456	4,302673
0,633000	0,469513	4,999847
0,634000	0,505676	4,999847
0,635000	0,543823	4,999847
0,636000	0,559845	4,999847
0,637000	0,558624	4,999847
0,638000	0,565186	4,216461
0,639000	0,566711	3,203583
0,640000	0,562592	2,644806
0,641000	0,557404	4,245148
0,642000	0,553589	4,999847
0,643000	0,552216	4,999847
0,644000	0,550232	4,999847
0,645000	0,549927	4,999847
0,646000	0,544128	4,999847
0,647000	0,540924	4,999847
0,648000	0,535431	4,958649
0,649000	0,537415	4,442291
0,650000	0,534515	2,893219
0,651000	0,533142	4,748535
0,652000	0,531616	3,560638
0,653000	0,529633	4,999847
0,654000	0,530243	4,999847
0,655000	0,527191	4,999847
0,656000	0,523529	4,999847
0,657000	0,523834	4,999847
0,658000	0,523224	4,999847
0,659000	0,525665	3,931885
0,660000	0,505981	3,233337
0,661000	0,519409	4,361115
0,662000	0,521393	4,664764
0,663000	0,530853	4,999847
0,664000	0,529785	4,999847
0,665000	0,534973	4,999847
0,666000	0,529327	4,999847
0,667000	0,528717	4,999847
0,668000	0,530853	4,999847
0,669000	0,533447	4,999847
0,670000	0,535278	3,274841
0,671000	0,531616	2,997437
0,672000	0,539093	4,143829
0,673000	0,530701	4,999847
0,674000	0,541840	4,999847
0,675000	0,539703	4,999847
0,676000	0,549622	4,999847
0,677000	0,540619	4,999847
0,678000	0,551453	4,999847
0,679000	0,546112	4,014435
0,680000	0,552063	2,374573
0,681000	0,536346	4,520111
0,682000	0,544128	4,439545
0,683000	0,543823	4,999847
0,684000	0,541077	4,999847
0,685000	0,547485	4,999847
0,686000	0,550995	4,999847
0,687000	0,536346	4,999847
0,688000	0,513916	4,602966
0,689000	0,544434	4,787292
0,690000	0,529327	2,660522
0,691000	0,556335	4,813232
0,692000	0,525818	3,545837
0,693000	0,560608	4,999847
0,694000	0,541077	4,999847
0,695000	0,561218	4,999847
0,696000	0,526886	4,999847
0,697000	0,523834	4,999847
0,698000	0,521088	4,830322
0,699000	0,505524	3,628693
0,700000	0,529175	3,705444
0,701000	0,495453	3,711090
0,702000	0,540314	4,999847
0,703000	0,487061	4,999847
0,704000	0,550842	4,999847
0,705000	0,479279	4,999847
0,706000	0,556030	4,999847
0,707000	0,485687	4,999847
0,708000	0,542603	4,999847
0,709000	0,501862	4,980164
0,710000	0,530701	4,058838
0,711000	0,516968	4,964600
0,712000	0,519867	4,029999
0,713000	0,531769	4,999847
0,714000	0,510254	4,999847
0,715000	0,544586	4,999847
0,716000	0,500946	4,999847
0,717000	0,557098	4,999847
0,718000	0,492706	4,668732
0,719000	0,568237	4,324493
0,720000	0,485229	3,227081
0,721000	0,567627	3,017273
0,722000	0,500641	4,169464
0,723000	0,552979	4,999847
0,724000	0,518036	4,999847
0,725000	0,540619	4,999847
0,726000	0,534363	4,999847
0,727000	0,529022	4,999847
0,728000	0,549316	4,999847
0,729000	0,518646	4,130402
0,730000	0,563049	2,714233
0,731000	0,509338	4,999847
0,732000	0,575409	4,080048
0,733000	0,500641	4,999847
0,734000	0,588074	4,999847
0,735000	0,498962	4,999847
0,736000	0,578766	4,999847
0,737000	0,517731	4,999847
0,738000	0,564117	4,999847
0,739000	0,536041	4,379425
0,740000	0,550232	3,830109
0,741000	0,552826	3,934021
0,742000	0,538177	4,585419
0,743000	0,568237	4,999847
0,744000	0,527496	4,999847
0,745000	0,582581	4,999847
0,746000	0,517426	4,999847
0,747000	0,595703	4,999847
0,748000	0,509033	4,999847
0,749000	0,605774	4,423676
0,750000	0,516052	3,770294
0,751000	0,589752	4,999847
0,752000	0,536499	3,544464
0,753000	0,574036	4,697723
0,754000	0,555115	4,999847
0,755000	0,560303	4,999847
0,756000	0,572205	4,999847
0,757000	0,548096	4,999847
0,758000	0,587921	4,972382
0,759000	0,537109	3,668518
0,760000	0,602875	3,875122
0,761000	0,527039	3,390656
0,762000	0,616455	4,999847
0,763000	0,518341	4,999847
0,764000	0,617523	4,999847
0,765000	0,535126	4,999847
0,766000	0,600128	4,999847
0,767000	0,556030	4,999847
0,768000	0,584412	4,999847
0,769000	0,575409	4,778595
0,770000	0,570984	3,696136
0,771000	0,593109	3,969116
0,772000	0,558624	3,734589
0,773000	0,609589	4,999847
0,774000	0,548401	4,999847
0,775000	0,625000	4,999847
0,776000	0,537872	4,999847
0,777000	0,638580	4,999847
0,778000	0,533295	4,999847
0,779000	0,629120	3,523865
0,780000	0,556183	4,591980
0,781000	0,611877	3,424835
0,782000	0,577393	4,999847
0,783000	0,596466	4,999847
0,784000	0,597687	4,999847
0,785000	0,582581	4,999847
0,786000	0,614929	4,999847
0,787000	0,570374	4,999847
0,788000	0,632172	4,999847
0,789000	0,559540	4,492950
0,790000	0,611572	4,214935
0,791000	0,534668	4,208679
0,792000	0,653076	3,380127
0,793000	0,552979	4,999847
0,794000	0,640106	4,999847
0,795000	0,578613	4,999847
0,796000	0,623932	4,999847
0,797000	0,601196	4,999847
0,798000	0,608826	4,738922
0,799000	0,621338	3,529816
0,800000	0,596008	4,853821
0,801000	0,638885	3,923340
0,802000	0,583649	4,225922
0,803000	0,655670	4,999847
0,804000	0,573578	4,999847
0,805000	0,671387	4,999847
0,806000	0,564575	4,999847
0,807000	0,675201	4,999847
0,808000	0,581512	4,999847
0,809000	0,655518	3,775787
0,810000	0,605011	3,617401
0,811000	0,638885	4,680176
0,812000	0,626678	3,956604
0,813000	0,624390	4,999847
0,814000	0,646515	4,999847
0,815000	0,610962	4,999847
0,816000	0,664978	4,999847
0,817000	0,599823	4,999847
0,818000	0,681458	4,848938
0,819000	0,589294	3,616028
0,820000	0,696259	3,168793
0,821000	0,582428	3,481750
0,822000	0,688629	4,788666
0,823000	0,608063	4,999847
0,824000	0,670319	4,999847
0,825000	0,631561	4,999847
0,826000	0,653839	4,999847
0,827000	0,653076	4,999847
0,828000	0,639954	4,999847
0,829000	0,672607	4,197998
0,830000	0,626831	2,749329
0,831000	0,690613	4,410095
0,832000	0,616302	3,005371
0,833000	0,707092	4,999847
0,834000	0,606689	4,999847
0,835000	0,722351	4,999847
0,836000	0,610809	4,999847
0,837000	0,703735	4,999847
0,838000	0,636292	4,757996
0,839000	0,685730	3,956146
0,840000	0,659180	3,472443
0,841000	0,670166	3,560486
0,842000	0,680542	4,604492
0,843000	0,657043	4,999847
0,844000	0,700073	4,999847
0,845000	0,644684	4,999847
0,846000	0,717163	4,999847
0,847000	0,633698	4,999847
0,848000	0,733643	4,999847
0,849000	0,624390	4,484253
0,850000	0,738678	4,455414
0,851000	0,640411	3,206024
0,852000	0,720215	3,008270
0,853000	0,635681	4,999847
0,854000	0,671234	4,999847
0,855000	0,657959	4,999847
0,856000	0,658569	4,999847
0,857000	0,684814	4,999847
0,858000	0,652618	4,320831
0,859000	0,703125	3,890228
0,860000	0,660858	3,682404
0,861000	0,742798	3,160706
0,862000	0,650940	4,488068
0,863000	0,758209	4,999847
0,864000	0,641174	4,999847
0,865000	0,751648	4,999847
0,866000	0,667114	4,999847
0,867000	0,733185	4,999847
0,868000	0,691376	4,673767
0,869000	0,716400	4,490051
0,870000	0,713654	4,306488
0,871000	0,702820	4,024200
0,872000	0,733643	3,235779
0,873000	0,689240	4,999847
0,874000	0,751953	4,999847
0,875000	0,678406	4,999847
0,876000	0,769043	4,999847
0,877000	0,668488	4,999847
0,878000	0,784454	4,672699
0,879000	0,670471	3,534088
0,880000	0,768127	2,718811
0,881000	0,697174	4,490204
0,882000	0,749969	4,999847
0,883000	0,720215	4,999847
0,884000	0,733643	4,999847
0,885000	0,741425	4,999847
0,886000	0,719604	4,999847
0,887000	0,760803	4,999847
0,888000	0,707397	4,999847
0,889000	0,742645	4,347839
0,890000	0,664062	3,653107
0,891000	0,759430	3,611145
0,892000	0,621796	4,302979
0,893000	0,739441	4,999847
0,894000	0,655975	4,999847
0,895000	0,741577	4,999847
0,896000	0,688934	4,999847
0,897000	0,729065	4,999847
0,898000	0,713501	4,453430
0,899000	0,715332	3,476410
0,900000	0,733185	3,439484
0,901000	0,702667	3,654633
0,902000	0,751648	4,626770
0,903000	0,691223	4,999847
0,904000	0,768280	4,999847
0,905000	0,681152	4,999847
0,906000	0,783234	4,999847
0,907000	0,671387	4,999847
0,908000	0,779877	4,999847
0,909000	0,695343	4,519958
0,910000	0,761414	3,442688
0,911000	0,718994	4,089203
0,912000	0,745239	3,990173
0,913000	0,739441	4,349976
0,914000	0,730896	4,999847
0,915000	0,758820	4,999847
0,916000	0,719147	4,999847
0,917000	0,776978	4,999847
0,918000	0,707855	4,404297
0,919000	0,792694	3,907013
0,920000	0,697632	3,476868
0,921000	0,808105	3,553009
0,922000	0,697784	4,469452
0,923000	0,794373	4,999847
0,924000	0,722504	4,999847
0,925000	0,777283	4,999847
0,926000	0,745697	4,999847
0,927000	0,761719	4,999847
0,928000	0,765533	4,999847
0,929000	0,747986	4,999847
0,930000	0,784760	2,692871
0,931000	0,735474	3,876038
0,932000	0,801697	3,650513
0,933000	0,724792	4,999847
0,934000	0,818787	4,999847
0,935000	0,716248	4,999847
0,936000	0,829010	4,999847
0,937000	0,725708	4,999847
0,938000	0,811157	3,883820
0,939000	0,749969	3,977203
0,940000	0,794373	3,523102
0,941000	0,771484	3,818054
0,942000	0,778961	4,999847
0,943000	0,791168	4,999847
0,944000	0,765839	4,999847
0,945000	0,810394	4,999847
0,946000	0,753174	4,999847
0,947000	0,828400	4,999847
0,948000	0,742340	4,999847
0,949000	0,845642	4,519806
0,950000	0,732574	3,286438
0,951000	0,844879	4,583130
0,952000	0,753479	4,165802
0,953000	0,827179	4,999847
0,954000	0,776215	4,999847
0,955000	0,811157	4,999847
0,956000	0,797577	4,999847
0,957000	0,796051	4,999847
0,958000	0,817413	4,747467
0,959000	0,781860	4,465027
0,960000	0,837097	2,873993
0,961000	0,769196	4,468536
0,962000	0,854340	4,696808
0,963000	0,757904	4,999847
0,964000	0,869751	4,999847
0,965000	0,753632	4,999847
0,966000	0,856171	4,999847
0,967000	0,777740	4,999847
0,968000	0,838928	4,999847
0,969000	0,800018	4,999847
0,970000	0,822449	4,387054
0,971000	0,821075	3,293304
0,972000	0,806732	4,915771
0,973000	0,840607	4,999847
0,974000	0,792084	4,999847
0,975000	0,858612	4,999847
0,976000	0,779114	4,999847
0,977000	0,873871	4,999847
0,978000	0,767059	4,416199
0,979000	0,881653	4,218140
0,980000	0,773468	4,202881
0,981000	0,859985	3,371735
0,982000	0,796661	4,920807
0,983000	0,841827	4,999847
0,984000	0,818634	4,999847
0,985000	0,825653	4,999847
0,986000	0,839386	4,999847
0,987000	0,811005	4,999847
0,988000	0,724640	4,999847
0,989000	0,684509	4,304504
0,990000	0,666656	2,665253
0,991000	0,658569	4,291840
0,992000	0,654297	4,802094
0,993000	0,652771	4,999847
0,994000	0,645447	4,999847
0,995000	0,621948	4,999847
0,996000	0,634155	4,999847
0,997000	0,643311	4,999847
0,998000	0,647278	4,507904
0,999000	0,648651	3,637238

