LabVIEW Measurement	
Writer_Version	2
Reader_Version	2
Separator	Tab
Decimal_Separator	,
Multi_Headings	Yes
X_Columns	One
Time_Pref	Absolute
Operator	d.nicolai
Date	2023/11/09
Time	16:04:05,6565121999996605588
***End_of_Header***	
	
Channels	2		
Samples	1000	1000	
Date	2023/11/09	2023/11/09	
Time	16:04:06,7035126999996362223	16:04:06,7035126999996362223	
Y_Unit_Label	Volts	Volts	
X_Dimension	Time	Time	
X0	0,0000000000000000E+0	0,0000000000000000E+0	
Delta_X	0,001000	0,001000	
***End_of_Header***			
X_Value	powebox	triggerbox	Comment
0,000000	0,674286	0,943756
0,001000	0,607147	3,760986
0,002000	0,634613	4,999847
0,003000	0,614777	4,999847
0,004000	0,614471	4,999847
0,005000	0,631561	4,999847
0,006000	0,600586	4,999847
0,007000	0,648041	4,999847
0,008000	0,589752	4,999847
0,009000	0,663757	4,332428
0,010000	0,579681	4,337616
0,011000	0,678711	3,788605
0,012000	0,571289	3,853607
0,013000	0,674744	4,999847
0,014000	0,594177	4,999847
0,015000	0,657196	4,999847
0,016000	0,616760	4,999847
0,017000	0,642090	4,999847
0,018000	0,637054	4,741669
0,019000	0,628052	3,563538
0,020000	0,655670	3,824615
0,021000	0,616302	4,768982
0,022000	0,672607	4,892120
0,023000	0,605316	4,999847
0,024000	0,688782	4,999847
0,025000	0,596313	4,999847
0,026000	0,703125	4,999847
0,027000	0,596161	4,999847
0,028000	0,688477	4,999847
0,029000	0,620575	3,620758
0,030000	0,671539	4,701538
0,031000	0,642853	3,593445
0,032000	0,634003	4,287262
0,033000	0,619965	4,999847
0,034000	0,616150	4,999847
0,035000	0,668488	4,999847
0,036000	0,626831	4,999847
0,037000	0,694733	4,999847
0,038000	0,620270	4,999847
0,039000	0,712128	4,003296
0,040000	0,611877	2,871857
0,041000	0,727844	4,618073
0,042000	0,646515	4,999847
0,043000	0,734558	4,999847
0,044000	0,682220	4,999847
0,045000	0,729370	4,999847
0,046000	0,706482	4,999847
0,047000	0,719147	4,999847
0,048000	0,724030	4,999847
0,049000	0,707092	3,674469
0,050000	0,738525	2,771759
0,051000	0,696564	4,886475
0,052000	0,752869	3,374329
0,053000	0,688019	4,999847
0,054000	0,765533	4,999847
0,055000	0,676880	4,999847
0,056000	0,777740	4,999847
0,057000	0,693817	4,999847
0,058000	0,762634	4,999847
0,059000	0,706177	3,747559
0,060000	0,742035	2,975616
0,061000	0,720825	4,728546
0,062000	0,725098	4,276276
0,063000	0,739594	4,999847
0,064000	0,708008	4,999847
0,065000	0,752258	4,999847
0,066000	0,692749	4,999847
0,067000	0,764923	4,999847
0,068000	0,686340	4,999847
0,069000	0,780792	4,058838
0,070000	0,678864	3,429413
0,071000	0,788269	4,999847
0,072000	0,702209	3,393707
0,073000	0,770264	4,999847
0,074000	0,724487	4,999847
0,075000	0,760498	4,999847
0,076000	0,748596	4,999847
0,077000	0,748444	4,999847
0,078000	0,768585	4,828033
0,079000	0,734711	3,701172
0,080000	0,781250	3,182373
0,081000	0,717773	4,999847
0,082000	0,794067	4,999847
0,083000	0,709686	4,999847
0,084000	0,810242	4,999847
0,085000	0,717468	4,999847
0,086000	0,820923	4,999847
0,087000	0,737610	4,999847
0,088000	0,799561	4,999847
0,089000	0,754700	3,388672
0,090000	0,779877	2,939453
0,091000	0,771790	3,439026
0,092000	0,764771	4,140472
0,093000	0,789490	4,999847
0,094000	0,749664	4,999847
0,095000	0,805359	4,999847
0,096000	0,735168	4,999847
0,097000	0,820160	4,999847
0,098000	0,725555	4,611511
0,099000	0,836182	3,487244
0,100000	0,741119	2,558136
0,101000	0,839539	4,747467
0,102000	0,763397	4,775848
0,103000	0,821838	4,999847
0,104000	0,782623	4,999847
0,105000	0,803833	4,999847
0,106000	0,800629	4,999847
0,107000	0,783997	4,999847
0,108000	0,815582	4,999847
0,109000	0,765228	4,318695
0,110000	0,830536	3,230286
0,111000	0,751495	4,737854
0,112000	0,846100	3,172607
0,113000	0,744629	4,999847
0,114000	0,859222	4,999847
0,115000	0,770111	4,999847
0,116000	0,860291	4,999847
0,117000	0,749207	4,999847
0,118000	0,741425	4,999847
0,119000	0,737000	3,256836
0,120000	0,735168	2,848358
0,121000	0,766907	3,571777
0,122000	0,839081	4,551544
0,123000	0,793152	4,999847
0,124000	0,798798	4,999847
0,125000	0,788269	4,999847
0,126000	0,779572	4,999847
0,127000	0,804443	4,999847
0,128000	0,759277	4,999847
0,129000	0,817413	3,564606
0,130000	0,747528	4,635773
0,131000	0,831451	3,935089
0,132000	0,735931	4,213409
0,133000	0,841675	4,999847
0,134000	0,751801	4,999847
0,135000	0,825500	4,999847
0,136000	0,765381	4,999847
0,137000	0,823975	4,999847
0,138000	0,791016	3,788300
0,139000	0,805817	2,422333
0,140000	0,809174	2,888794
0,141000	0,791321	3,870850
0,142000	0,826111	4,945679
0,143000	0,773773	4,999847
0,144000	0,837097	4,999847
0,145000	0,760651	4,999847
0,146000	0,844421	4,999847
0,147000	0,749817	4,999847
0,148000	0,847473	4,882965
0,149000	0,773773	4,398346
0,150000	0,845642	3,469391
0,151000	0,796051	3,682861
0,152000	0,834503	3,731537
0,153000	0,813904	4,999847
0,154000	0,811157	4,999847
0,155000	0,827637	4,999847
0,156000	0,798187	4,999847
0,157000	0,840607	4,999847
0,158000	0,781097	4,773102
0,159000	0,846100	3,532104
0,160000	0,766449	3,664398
0,161000	0,849457	3,359528
0,162000	0,770874	4,999847
0,163000	0,849457	4,999847
0,164000	0,739288	4,999847
0,165000	0,671692	4,999847
0,166000	0,641327	4,999847
0,167000	0,626984	4,999847
0,168000	0,619965	4,850616
0,169000	0,616913	4,298553
0,170000	0,615540	4,999847
0,171000	0,614624	2,944946
0,172000	0,614166	4,960022
0,173000	0,614319	4,999847
0,174000	0,613708	4,999847
0,175000	0,613708	4,999847
0,176000	0,613861	4,999847
0,177000	0,613708	4,999847
0,178000	0,613556	4,678040
0,179000	0,613098	2,489624
0,180000	0,613403	2,072296
0,181000	0,613708	3,932953
0,182000	0,613556	4,999847
0,183000	0,613251	4,999847
0,184000	0,608368	4,999847
0,185000	0,580292	4,999847
0,186000	0,566711	4,999847
0,187000	0,561981	4,999847
0,188000	0,559540	4,485626
0,189000	0,558929	4,495239
0,190000	0,559998	3,446960
0,191000	0,558472	2,948761
0,192000	0,557404	4,999847
0,193000	0,557709	4,954681
0,194000	0,557098	4,999847
0,195000	0,554962	4,999847
0,196000	0,546112	4,999847
0,197000	0,542755	4,999847
0,198000	0,547943	3,736115
0,199000	0,549469	3,058319
0,200000	0,551300	3,322601
0,201000	0,552216	3,735962
0,202000	0,550079	4,999847
0,203000	0,549316	4,999847
0,204000	0,547180	4,999847
0,205000	0,549011	4,999847
0,206000	0,550232	4,999847
0,207000	0,551147	4,999847
0,208000	0,548248	4,999847
0,209000	0,547791	4,609528
0,210000	0,547791	3,201904
0,211000	0,547943	3,475189
0,212000	0,550232	4,492493
0,213000	0,551910	4,999847
0,214000	0,552673	4,999847
0,215000	0,551605	4,999847
0,216000	0,551147	4,999847
0,217000	0,549469	4,999847
0,218000	0,550232	3,814545
0,219000	0,552063	3,298950
0,220000	0,550995	2,822266
0,221000	0,549469	3,815155
0,222000	0,549316	4,904022
0,223000	0,548553	4,999847
0,224000	0,543976	4,999847
0,225000	0,543976	4,999847
0,226000	0,540161	4,999847
0,227000	0,541382	4,999847
0,228000	0,536804	4,919891
0,229000	0,535889	3,844757
0,230000	0,531769	3,268127
0,231000	0,531311	3,318939
0,232000	0,529480	3,862457
0,233000	0,531921	4,999847
0,234000	0,534821	4,999847
0,235000	0,540314	4,999847
0,236000	0,540619	4,999847
0,237000	0,506897	4,999847
0,238000	0,500031	4,999847
0,239000	0,491638	3,298645
0,240000	0,516815	2,747803
0,241000	0,522156	4,999847
0,242000	0,528717	4,999847
0,243000	0,524597	4,999847
0,244000	0,534973	4,999847
0,245000	0,539856	4,999847
0,246000	0,542908	4,999847
0,247000	0,542755	4,999847
0,248000	0,542908	4,999847
0,249000	0,547180	4,720154
0,250000	0,546722	3,647308
0,251000	0,543518	3,801880
0,252000	0,540619	4,323425
0,253000	0,539246	4,999847
0,254000	0,538330	4,999847
0,255000	0,545959	4,999847
0,256000	0,545959	4,999847
0,257000	0,549469	4,999847
0,258000	0,546417	4,300995
0,259000	0,548096	3,230743
0,260000	0,546112	3,696289
0,261000	0,548706	4,825439
0,262000	0,545959	4,999847
0,263000	0,544739	4,999847
0,264000	0,545197	4,999847
0,265000	0,545044	4,999847
0,266000	0,548096	4,999847
0,267000	0,549469	4,999847
0,268000	0,551300	4,999847
0,269000	0,548401	4,239502
0,270000	0,548553	4,999847
0,271000	0,547333	3,058319
0,272000	0,545197	4,075775
0,273000	0,550385	4,999847
0,274000	0,553741	4,999847
0,275000	0,552979	4,999847
0,276000	0,551758	4,999847
0,277000	0,551758	4,999847
0,278000	0,552216	4,244690
0,279000	0,554504	3,357086
0,280000	0,553894	3,682404
0,281000	0,552368	4,999847
0,282000	0,551910	4,670258
0,283000	0,552216	4,999847
0,284000	0,553894	4,999847
0,285000	0,552216	4,999847
0,286000	0,553436	4,999847
0,287000	0,550232	4,999847
0,288000	0,553436	4,999847
0,289000	0,535889	3,998413
0,290000	0,549774	4,014587
0,291000	0,554962	4,296875
0,292000	0,559387	3,094635
0,293000	0,559998	4,999847
0,294000	0,559082	4,999847
0,295000	0,561218	4,999847
0,296000	0,554962	4,999847
0,297000	0,558777	4,999847
0,298000	0,551605	4,958344
0,299000	0,559540	3,608856
0,300000	0,549469	2,896118
0,301000	0,560150	4,999847
0,302000	0,556641	4,874268
0,303000	0,563049	4,999847
0,304000	0,558777	4,999847
0,305000	0,562439	4,999847
0,306000	0,563354	4,999847
0,307000	0,564575	4,999847
0,308000	0,567932	4,999847
0,309000	0,562897	3,391418
0,310000	0,569916	3,271484
0,311000	0,562134	4,367065
0,312000	0,572815	3,079224
0,313000	0,561981	4,999847
0,314000	0,576324	4,999847
0,315000	0,561066	4,999847
0,316000	0,573425	4,999847
0,317000	0,563965	4,999847
0,318000	0,569916	4,999847
0,319000	0,564728	3,410645
0,320000	0,565796	2,930756
0,321000	0,567932	4,518738
0,322000	0,565186	4,999847
0,323000	0,574493	4,999847
0,324000	0,563354	4,999847
0,325000	0,578613	4,999847
0,326000	0,565948	4,999847
0,327000	0,585022	4,999847
0,328000	0,559235	4,999847
0,329000	0,584259	3,068237
0,330000	0,562592	3,654633
0,331000	0,579224	4,044342
0,332000	0,568237	4,157410
0,333000	0,575562	4,999847
0,334000	0,573425	4,999847
0,335000	0,576019	4,999847
0,336000	0,581818	4,999847
0,337000	0,573120	4,999847
0,338000	0,587616	4,567108
0,339000	0,561829	2,911377
0,340000	0,566559	3,091125
0,341000	0,559235	4,634857
0,342000	0,594177	4,999847
0,343000	0,572052	4,999847
0,344000	0,600128	4,999847
0,345000	0,582123	4,999847
0,346000	0,597839	4,999847
0,347000	0,588226	4,999847
0,348000	0,596008	4,682159
0,349000	0,594330	4,084778
0,350000	0,594025	4,379883
0,351000	0,602875	3,572845
0,352000	0,590820	4,477997
0,353000	0,608368	4,999847
0,354000	0,589447	4,999847
0,355000	0,614624	4,999847
0,356000	0,590973	4,999847
0,357000	0,621796	4,999847
0,358000	0,593262	4,097900
0,359000	0,619202	3,273315
0,360000	0,602875	4,070435
0,361000	0,613861	3,961792
0,362000	0,606842	4,999847
0,363000	0,610962	4,999847
0,364000	0,615997	4,999847
0,365000	0,611115	4,999847
0,366000	0,623016	4,999847
0,367000	0,606995	4,999847
0,368000	0,628510	4,999847
0,369000	0,606232	4,736328
0,370000	0,635681	4,309845
0,371000	0,601349	3,475189
0,372000	0,638275	4,999847
0,373000	0,607452	4,999847
0,374000	0,632935	4,999847
0,375000	0,614929	4,999847
0,376000	0,626984	4,999847
0,377000	0,620728	4,999847
0,378000	0,620422	4,304352
0,379000	0,627747	3,454132
0,380000	0,614319	3,477020
0,381000	0,634918	4,760895
0,382000	0,611420	4,914703
0,383000	0,641937	4,999847
0,384000	0,612335	4,999847
0,385000	0,651093	4,999847
0,386000	0,615692	4,999847
0,387000	0,654755	4,999847
0,388000	0,620422	4,999847
0,389000	0,647125	3,480682
0,390000	0,631714	3,211060
0,391000	0,641327	3,142242
0,392000	0,641937	4,536438
0,393000	0,638428	4,999847
0,394000	0,649109	4,999847
0,395000	0,633545	4,999847
0,396000	0,655823	4,999847
0,397000	0,625610	4,999847
0,398000	0,660706	4,457397
0,399000	0,617371	3,558807
0,400000	0,666504	2,524109
0,401000	0,612946	3,852081
0,402000	0,660095	4,999847
0,403000	0,629425	4,999847
0,404000	0,654602	4,999847
0,405000	0,640106	4,999847
0,406000	0,647583	4,999847
0,407000	0,648651	4,999847
0,408000	0,642090	4,971466
0,409000	0,660400	3,783722
0,410000	0,629730	3,709259
0,411000	0,659790	3,787079
0,412000	0,604706	4,404602
0,413000	0,662689	4,999847
0,414000	0,597839	4,999847
0,415000	0,669861	4,999847
0,416000	0,605774	4,999847
0,417000	0,657349	4,999847
0,418000	0,621185	4,138947
0,419000	0,647125	3,461304
0,420000	0,635834	3,498993
0,421000	0,636444	4,501495
0,422000	0,647125	4,999847
0,423000	0,627441	4,999847
0,424000	0,659485	4,999847
0,425000	0,617981	4,999847
0,426000	0,669708	4,999847
0,427000	0,613098	4,999847
0,428000	0,681610	4,999847
0,429000	0,604248	3,976135
0,430000	0,681915	2,911530
0,431000	0,622559	3,542786
0,432000	0,670013	4,432678
0,433000	0,640411	4,958801
0,434000	0,660095	4,999847
0,435000	0,656128	4,999847
0,436000	0,653076	4,999847
0,437000	0,672607	4,999847
0,438000	0,648804	4,400330
0,439000	0,686035	3,374939
0,440000	0,637970	2,067261
0,441000	0,694733	4,999847
0,442000	0,594635	4,999847
0,443000	0,661469	4,999847
0,444000	0,615997	4,999847
0,445000	0,695648	4,999847
0,446000	0,648956	4,999847
0,447000	0,691528	4,999847
0,448000	0,669250	4,663239
0,449000	0,683289	3,984833
0,450000	0,684052	3,881378
0,451000	0,673523	4,722595
0,452000	0,696106	4,999847
0,453000	0,662689	4,999847
0,454000	0,707703	4,999847
0,455000	0,655060	4,999847
0,456000	0,719452	4,999847
0,457000	0,646362	4,999847
0,458000	0,729675	4,999847
0,459000	0,655212	3,587494
0,460000	0,721283	2,710724
0,461000	0,672150	4,999847
0,462000	0,705566	4,999847
0,463000	0,684814	4,999847
0,464000	0,691833	4,999847
0,465000	0,700531	4,999847
0,466000	0,682526	4,999847
0,467000	0,714569	4,999847
0,468000	0,670929	4,902954
0,469000	0,725861	3,379974
0,470000	0,652924	4,999847
0,471000	0,733795	4,574738
0,472000	0,641937	4,999847
0,473000	0,739899	4,999847
0,474000	0,656281	4,999847
0,475000	0,724335	4,999847
0,476000	0,679626	4,999847
0,477000	0,712128	4,507904
0,478000	0,699768	4,758606
0,479000	0,696869	3,442230
0,480000	0,712433	3,158112
0,481000	0,675049	4,252777
0,482000	0,722809	4,999847
0,483000	0,666351	4,999847
0,484000	0,740204	4,999847
0,485000	0,665436	4,999847
0,486000	0,756378	4,999847
0,487000	0,662994	4,999847
0,488000	0,758820	4,999847
0,489000	0,680389	4,259796
0,490000	0,739746	3,838959
0,491000	0,700378	3,943481
0,492000	0,723724	3,498535
0,493000	0,718536	4,999847
0,494000	0,711060	4,999847
0,495000	0,735168	4,999847
0,496000	0,695648	4,999847
0,497000	0,749512	4,999847
0,498000	0,682373	4,999847
0,499000	0,762634	2,304993
0,500000	0,673676	3,235779
0,501000	0,777435	4,999847
0,502000	0,685577	4,999847
0,503000	0,779419	4,999847
0,504000	0,709991	4,999847
0,505000	0,761414	4,999847
0,506000	0,726929	4,999847
0,507000	0,744171	4,999847
0,508000	0,744324	4,999847
0,509000	0,724945	3,192902
0,510000	0,758514	4,595795
0,511000	0,710449	4,316864
0,512000	0,773010	3,800812
0,513000	0,694275	4,999847
0,514000	0,784912	4,999847
0,515000	0,681610	4,999847
0,516000	0,797424	4,999847
0,517000	0,701752	4,999847
0,518000	0,787048	4,999847
0,519000	0,724335	3,090057
0,520000	0,767059	1,733856
0,521000	0,742493	4,886322
0,522000	0,744934	4,999847
0,523000	0,760040	4,999847
0,524000	0,734711	4,999847
0,525000	0,778351	4,999847
0,526000	0,720520	4,999847
0,527000	0,793304	4,999847
0,528000	0,709076	4,999847
0,529000	0,809021	3,104706
0,530000	0,704498	4,808350
0,531000	0,816650	4,024811
0,532000	0,724945	4,568176
0,533000	0,796814	4,999847
0,534000	0,746307	4,999847
0,535000	0,775452	4,999847
0,536000	0,764923	4,999847
0,537000	0,762177	4,999847
0,538000	0,784149	4,763947
0,539000	0,752563	2,570496
0,540000	0,804596	3,102875
0,541000	0,741730	4,913330
0,542000	0,822296	4,999847
0,543000	0,730743	4,999847
0,544000	0,819397	4,999847
0,545000	0,709534	4,999847
0,546000	0,831757	4,999847
0,547000	0,752869	4,999847
0,548000	0,820465	4,999847
0,549000	0,776672	2,852478
0,550000	0,814056	3,647003
0,551000	0,801697	4,234772
0,552000	0,798187	4,251709
0,553000	0,820465	4,999847
0,554000	0,776672	4,999847
0,555000	0,739594	4,999847
0,556000	0,737457	4,999847
0,557000	0,736694	4,999847
0,558000	0,770721	4,999847
0,559000	0,830841	2,583771
0,560000	0,768738	3,691406
0,561000	0,789185	4,999847
0,562000	0,786591	4,999847
0,563000	0,769043	4,999847
0,564000	0,801849	4,999847
0,565000	0,755005	4,999847
0,566000	0,818329	4,999847
0,567000	0,741272	4,999847
0,568000	0,831909	4,999847
0,569000	0,731354	2,920380
0,570000	0,841827	3,842010
0,571000	0,753174	4,534607
0,572000	0,835724	4,145813
0,573000	0,770874	4,999847
0,574000	0,814209	4,999847
0,575000	0,789490	4,999847
0,576000	0,796356	4,999847
0,577000	0,807037	4,898834
0,578000	0,777130	3,922424
0,579000	0,821991	2,316284
0,580000	0,761719	3,771362
0,581000	0,835724	4,999847
0,582000	0,746460	4,999847
0,583000	0,844269	4,999847
0,584000	0,746155	4,999847
0,585000	0,846405	4,999847
0,586000	0,766602	4,999847
0,587000	0,834808	4,999847
0,588000	0,787354	4,999847
0,589000	0,813141	3,707428
0,590000	0,805969	4,036102
0,591000	0,797729	4,121857
0,592000	0,823975	4,999847
0,593000	0,783844	4,999847
0,594000	0,837860	4,999847
0,595000	0,769043	4,999847
0,596000	0,846252	4,999847
0,597000	0,751495	4,999847
0,598000	0,849457	4,658661
0,599000	0,759277	3,247681
0,600000	0,845947	2,905731
0,601000	0,726776	4,999847
0,602000	0,666809	4,999847
0,603000	0,639801	4,999847
0,604000	0,627289	4,999847
0,605000	0,621490	4,999847
0,606000	0,618744	4,999847
0,607000	0,617523	4,999847
0,608000	0,616760	4,624176
0,609000	0,616302	4,044189
0,610000	0,616150	4,841309
0,611000	0,616302	3,871002
0,612000	0,616455	4,999847
0,613000	0,616150	4,999847
0,614000	0,615692	4,999847
0,615000	0,615845	4,999847
0,616000	0,616302	4,999847
0,617000	0,615997	4,999847
0,618000	0,615997	4,484253
0,619000	0,615692	3,014832
0,620000	0,615997	3,544312
0,621000	0,615540	4,916687
0,622000	0,571289	4,999847
0,623000	0,547180	4,999847
0,624000	0,533905	4,999847
0,625000	0,530090	4,999847
0,626000	0,528717	4,999847
0,627000	0,530090	4,999847
0,628000	0,529785	4,999847
0,629000	0,532227	4,014282
0,630000	0,533752	4,994049
0,631000	0,535583	3,145905
0,632000	0,536194	4,942017
0,633000	0,537415	4,999847
0,634000	0,538788	4,999847
0,635000	0,534973	4,999847
0,636000	0,536194	4,999847
0,637000	0,533752	4,999847
0,638000	0,532532	3,684387
0,639000	0,530853	3,321838
0,640000	0,534058	3,193970
0,641000	0,530090	4,475555
0,642000	0,526123	4,999847
0,643000	0,526581	4,999847
0,644000	0,530701	4,999847
0,645000	0,534363	4,999847
0,646000	0,536804	4,999847
0,647000	0,503235	4,999847
0,648000	0,505829	4,999847
0,649000	0,521545	3,885345
0,650000	0,529480	3,520966
0,651000	0,534973	3,285828
0,652000	0,538330	4,999847
0,653000	0,541534	4,999847
0,654000	0,539246	4,999847
0,655000	0,542297	4,999847
0,656000	0,543518	4,999847
0,657000	0,543213	4,999847
0,658000	0,537109	3,844452
0,659000	0,534363	3,117523
0,660000	0,538025	2,042389
0,661000	0,539398	4,660950
0,662000	0,540009	4,999847
0,663000	0,536652	4,999847
0,664000	0,534058	4,999847
0,665000	0,529175	4,999847
0,666000	0,529327	4,999847
0,667000	0,527039	4,999847
0,668000	0,529175	4,958954
0,669000	0,527191	4,333344
0,670000	0,545197	4,026794
0,671000	0,547791	4,150238
0,672000	0,553131	4,999847
0,673000	0,556488	4,999847
0,674000	0,556488	4,999847
0,675000	0,555573	4,999847
0,676000	0,558624	4,999847
0,677000	0,560150	4,874725
0,678000	0,558472	3,689575
0,679000	0,557404	3,208771
0,680000	0,555267	4,301758
0,681000	0,554199	4,112701
0,682000	0,551300	4,999847
0,683000	0,550690	4,999847
0,684000	0,547333	4,999847
0,685000	0,549316	4,999847
0,686000	0,544281	4,999847
0,687000	0,542755	4,879303
0,688000	0,542908	4,999847
0,689000	0,548096	3,756714
0,690000	0,549622	4,570618
0,691000	0,549316	4,436951
0,692000	0,550385	4,780121
0,693000	0,550537	4,999847
0,694000	0,552673	4,999847
0,695000	0,551758	4,999847
0,696000	0,552979	4,999847
0,697000	0,550537	4,923096
0,698000	0,552979	4,578247
0,699000	0,549469	3,008118
0,700000	0,546722	3,204193
0,701000	0,545959	4,999847
0,702000	0,547943	4,999847
0,703000	0,548553	4,999847
0,704000	0,547333	4,999847
0,705000	0,549164	4,999847
0,706000	0,552979	4,999847
0,707000	0,556183	4,999847
0,708000	0,555267	4,584198
0,709000	0,556030	3,570862
0,710000	0,555115	4,133148
0,711000	0,557556	3,504791
0,712000	0,556946	4,999847
0,713000	0,560150	4,865723
0,714000	0,555420	4,999847
0,715000	0,553284	4,999847
0,716000	0,550842	4,999847
0,717000	0,547943	4,714661
0,718000	0,547028	4,999847
0,719000	0,542145	3,083649
0,720000	0,540314	2,645874
0,721000	0,539703	4,911194
0,722000	0,540466	4,999847
0,723000	0,544586	4,999847
0,724000	0,542755	4,999847
0,725000	0,547485	4,999847
0,726000	0,544281	4,999847
0,727000	0,551605	4,999847
0,728000	0,544891	4,930725
0,729000	0,551453	3,552551
0,730000	0,552216	4,280548
0,731000	0,556488	3,927307
0,732000	0,556335	4,999847
0,733000	0,557098	4,999847
0,734000	0,556641	4,999847
0,735000	0,558014	4,999847
0,736000	0,561371	4,999847
0,737000	0,561066	4,999847
0,738000	0,566101	4,424744
0,739000	0,564270	2,691040
0,740000	0,569458	2,972870
0,741000	0,558929	4,636688
0,742000	0,567017	4,999847
0,743000	0,553741	4,999847
0,744000	0,563812	4,999847
0,745000	0,559692	4,999847
0,746000	0,565338	4,999847
0,747000	0,566711	4,999847
0,748000	0,564880	4,603271
0,749000	0,538483	3,430023
0,750000	0,548859	4,575043
0,751000	0,562134	4,533234
0,752000	0,557556	4,999847
0,753000	0,572968	4,999847
0,754000	0,566711	4,999847
0,755000	0,580750	4,999847
0,756000	0,563965	4,999847
0,757000	0,581512	4,747162
0,758000	0,572662	4,983673
0,759000	0,580750	2,844543
0,760000	0,573273	2,008209
0,761000	0,580444	4,999847
0,762000	0,577545	4,999847
0,763000	0,578003	4,999847
0,764000	0,584106	4,999847
0,765000	0,578918	4,999847
0,766000	0,589142	4,999847
0,767000	0,578461	4,999390
0,768000	0,593109	4,894562
0,769000	0,577087	3,289185
0,770000	0,597076	4,176788
0,771000	0,581207	4,164886
0,772000	0,597076	4,263458
0,773000	0,587158	4,999847
0,774000	0,594788	4,999847
0,775000	0,590973	4,999847
0,776000	0,591888	4,999847
0,777000	0,595398	4,272766
0,778000	0,594635	4,255524
0,779000	0,601501	2,628174
0,780000	0,592499	3,198242
0,781000	0,606537	4,913025
0,782000	0,588379	4,999847
0,783000	0,608978	4,999847
0,784000	0,582581	4,999847
0,785000	0,611115	4,999847
0,786000	0,586700	4,999847
0,787000	0,606689	4,999847
0,788000	0,591431	4,390106
0,789000	0,601654	3,148041
0,790000	0,597839	4,458466
0,791000	0,596924	4,140320
0,792000	0,603333	4,999847
0,793000	0,597839	4,999847
0,794000	0,612793	4,999847
0,795000	0,598755	4,999847
0,796000	0,618896	4,999847
0,797000	0,595398	4,999847
0,798000	0,624695	4,999847
0,799000	0,588989	2,693481
0,800000	0,623322	3,321838
0,801000	0,595093	4,816284
0,802000	0,617676	4,999847
0,803000	0,602112	4,999847
0,804000	0,610657	4,999847
0,805000	0,608368	4,999847
0,806000	0,603333	4,999847
0,807000	0,613861	4,999847
0,808000	0,594940	4,999847
0,809000	0,619507	3,217621
0,810000	0,597687	4,153900
0,811000	0,631409	3,595581
0,812000	0,591431	4,999847
0,813000	0,635986	4,999847
0,814000	0,590210	4,999847
0,815000	0,631104	4,999847
0,816000	0,607910	4,999847
0,817000	0,630188	4,666138
0,818000	0,620422	3,859558
0,819000	0,620575	2,563782
0,820000	0,624237	3,789368
0,821000	0,615692	4,999847
0,822000	0,632782	4,999847
0,823000	0,614166	4,999847
0,824000	0,641937	4,999847
0,825000	0,606079	4,999847
0,826000	0,647736	4,999847
0,827000	0,599060	4,999847
0,828000	0,652008	4,366913
0,829000	0,607452	3,371887
0,830000	0,644684	4,939575
0,831000	0,620728	3,163452
0,832000	0,639038	4,999847
0,833000	0,630798	4,999847
0,834000	0,631104	4,999847
0,835000	0,637360	4,999847
0,836000	0,620728	4,999847
0,837000	0,645599	4,999847
0,838000	0,615540	4,732666
0,839000	0,654602	2,533112
0,840000	0,615387	3,240356
0,841000	0,665894	4,655609
0,842000	0,615082	4,999847
0,843000	0,669403	4,999847
0,844000	0,625763	4,999847
0,845000	0,659332	4,999847
0,846000	0,636597	4,999847
0,847000	0,652008	4,999847
0,848000	0,644531	4,999847
0,849000	0,638885	3,419342
0,850000	0,652008	4,999847
0,851000	0,617523	3,057861
0,852000	0,625000	4,999847
0,853000	0,599976	4,999847
0,854000	0,660400	4,999847
0,855000	0,611115	4,999847
0,856000	0,676727	4,999847
0,857000	0,612793	4,999847
0,858000	0,672913	3,635712
0,859000	0,630951	2,969208
0,860000	0,665131	3,567352
0,861000	0,643311	4,214172
0,862000	0,649261	4,999847
0,863000	0,647888	4,999847
0,864000	0,646210	4,999847
0,865000	0,667877	4,999847
0,866000	0,639343	4,999847
0,867000	0,679779	4,999847
0,868000	0,634155	4,999847
0,869000	0,690918	3,618469
0,870000	0,628967	3,766327
0,871000	0,700989	3,369293
0,872000	0,633545	4,989929
0,873000	0,689545	4,999847
0,874000	0,644836	4,999847
0,875000	0,672760	4,999847
0,876000	0,654297	4,999847
0,877000	0,659790	4,999847
0,878000	0,670624	4,248352
0,879000	0,652924	3,074799
0,880000	0,675659	4,194336
0,881000	0,647430	4,672546
0,882000	0,698853	4,999847
0,883000	0,634613	4,999847
0,884000	0,705414	4,999847
0,885000	0,626984	4,999847
0,886000	0,711823	4,999847
0,887000	0,643311	4,999847
0,888000	0,698090	4,999847
0,889000	0,665131	3,549194
0,890000	0,690155	4,493866
0,891000	0,680389	4,293518
0,892000	0,674591	4,999847
0,893000	0,689392	4,999847
0,894000	0,655975	4,999847
0,895000	0,697479	4,999847
0,896000	0,645905	4,999847
0,897000	0,709991	4,999847
0,898000	0,639496	3,955536
0,899000	0,723572	3,100281
0,900000	0,629120	3,217773
0,901000	0,717621	4,799805
0,902000	0,655365	4,999847
0,903000	0,710449	4,999847
0,904000	0,681000	4,999847
0,905000	0,700073	4,999847
0,906000	0,697632	4,999847
0,907000	0,689697	4,999847
0,908000	0,714264	4,999847
0,909000	0,682526	3,744049
0,910000	0,728607	4,113922
0,911000	0,672913	3,081970
0,912000	0,740662	4,999847
0,913000	0,664062	4,999847
0,914000	0,752106	4,999847
0,915000	0,665436	4,999847
0,916000	0,741882	4,999847
0,917000	0,683289	4,425354
0,918000	0,727539	3,348694
0,919000	0,699005	3,183594
0,920000	0,711517	3,469391
0,921000	0,712738	4,685059
0,922000	0,686493	4,999847
0,923000	0,722504	4,999847
0,924000	0,679474	4,999847
0,925000	0,739746	4,999847
0,926000	0,664368	4,999847
0,927000	0,752106	4,999847
0,928000	0,653076	4,999847
0,929000	0,764313	3,702240
0,930000	0,675659	3,356476
0,931000	0,747528	4,010315
0,932000	0,698242	4,999847
0,933000	0,739746	4,897766
0,934000	0,716553	4,999847
0,935000	0,720215	4,999847
0,936000	0,731201	4,999847
0,937000	0,703888	4,690247
0,938000	0,748291	4,064789
0,939000	0,688782	3,120575
0,940000	0,760345	3,267822
0,941000	0,673370	4,999847
0,942000	0,773163	4,999847
0,943000	0,668488	4,999847
0,944000	0,780640	4,999847
0,945000	0,694580	4,999847
0,946000	0,761414	4,999847
0,947000	0,714111	4,999847
0,948000	0,742035	4,999847
0,949000	0,733185	3,540497
0,950000	0,728607	4,277802
0,951000	0,752869	3,833160
0,952000	0,714264	4,999847
0,953000	0,768890	4,999847
0,954000	0,674896	4,999847
0,955000	0,748291	4,999847
0,956000	0,673065	4,999847
0,957000	0,790405	4,871216
0,958000	0,698700	4,676361
0,959000	0,803680	3,182678
0,960000	0,723572	2,982178
0,961000	0,789337	4,999847
0,962000	0,746765	4,999847
0,963000	0,771484	4,999847
0,964000	0,765228	4,999847
0,965000	0,752716	4,999847
0,966000	0,780945	4,999847
0,967000	0,739288	4,999847
0,968000	0,797729	4,851227
0,969000	0,731659	3,533936
0,970000	0,815125	4,999847
0,971000	0,720520	3,752899
0,972000	0,831604	4,999847
0,973000	0,731354	4,999847
0,974000	0,824890	4,999847
0,975000	0,751190	4,999847
0,976000	0,801697	4,999847
0,977000	0,769958	4,999847
0,978000	0,784149	3,550110
0,979000	0,787811	2,880402
0,980000	0,772400	3,375549
0,981000	0,807648	4,999847
0,982000	0,754547	4,999847
0,983000	0,823059	4,999847
0,984000	0,743256	4,999847
0,985000	0,840302	4,999847
0,986000	0,736237	4,999847
0,987000	0,853424	4,902496
0,988000	0,760498	4,398193
0,989000	0,845184	3,313446
0,990000	0,780792	4,289093
0,991000	0,829926	3,506622
0,992000	0,744324	4,503479
0,993000	0,739594	4,999847
0,994000	0,737152	4,999847
0,995000	0,736694	4,999847
0,996000	0,848083	4,999847
0,997000	0,741730	4,999847
0,998000	0,861359	3,511963
0,999000	0,768890	2,575378

