LabVIEW Measurement	
Writer_Version	2
Reader_Version	2
Separator	Tab
Decimal_Separator	,
Multi_Headings	Yes
X_Columns	One
Time_Pref	Absolute
Operator	d.nicolai
Date	2023/11/09
Time	16:08:33,1425122999999267049
***End_of_Header***	
	
Channels	2		
Samples	1000	1000	
Date	2023/11/09	2023/11/09	
Time	16:08:41,6415126999996683255	16:08:41,6415126999996683255	
Y_Unit_Label	Volts	Volts	
X_Dimension	Time	Time	
X0	0,0000000000000000E+0	0,0000000000000000E+0	
Delta_X	0,001000	0,001000	
***End_of_Header***			
X_Value	powebox	triggerbox	Comment
0,000000	0,995941	0,752258
0,001000	0,989685	4,999847
0,002000	0,993042	4,835815
0,003000	0,990601	4,999847
0,004000	0,990295	4,999847
0,005000	0,991974	4,999847
0,006000	0,987854	4,999847
0,007000	0,993805	4,999847
0,008000	0,985870	4,811401
0,009000	0,994568	3,990936
0,010000	0,983429	4,586487
0,011000	0,995636	4,294128
0,012000	0,981598	2,956543
0,013000	0,994720	4,999847
0,014000	0,983887	4,999847
0,015000	0,991821	4,999847
0,016000	0,986023	4,999847
0,017000	0,988922	4,999847
0,018000	0,987396	4,999847
0,019000	0,985260	3,212128
0,020000	0,988922	3,073273
0,021000	0,984650	3,353119
0,022000	0,993652	4,107819
0,023000	0,982361	4,999847
0,024000	0,993500	4,999847
0,025000	0,978699	4,999847
0,026000	0,993500	4,999847
0,027000	0,977478	4,999847
0,028000	0,991211	4,999847
0,029000	0,980835	3,657379
0,030000	0,988007	3,398590
0,031000	0,982513	4,121857
0,032000	0,984650	3,522949
0,033000	0,984955	4,999847
0,034000	0,981598	4,999847
0,035000	0,986938	4,999847
0,036000	0,979156	4,999847
0,037000	0,998383	4,999847
0,038000	0,980530	4,039612
0,039000	0,992889	3,026276
0,040000	0,974579	1,622009
0,041000	0,992279	4,999847
0,042000	0,975647	4,121399
0,043000	0,987701	4,999847
0,044000	0,978546	4,999847
0,045000	0,984650	4,999847
0,046000	0,981750	4,999847
0,047000	0,981903	4,999847
0,048000	0,984192	4,838257
0,049000	0,977631	3,090210
0,050000	0,986176	4,095612
0,051000	0,976257	4,999847
0,052000	0,988159	3,973541
0,053000	0,973206	4,999847
0,054000	0,990143	4,999847
0,055000	0,970764	4,999847
0,056000	0,989227	4,999847
0,057000	0,974579	4,999847
0,058000	0,985413	4,725647
0,059000	0,977173	3,695831
0,060000	0,981598	3,558960
0,061000	0,980377	4,999847
0,062000	0,979156	4,999847
0,063000	0,983429	4,999847
0,064000	0,975800	4,999847
0,065000	0,985413	4,999847
0,066000	0,972443	4,999847
0,067000	0,987396	4,999847
0,068000	0,970612	4,999847
0,069000	0,989227	4,647064
0,070000	0,970001	3,615265
0,071000	0,987091	4,181976
0,072000	0,973816	4,730377
0,073000	0,982819	4,999847
0,074000	0,976715	4,999847
0,075000	0,979462	4,999847
0,076000	0,979767	4,999847
0,077000	0,976257	4,999847
0,078000	0,982361	4,246063
0,079000	0,973358	2,862091
0,080000	0,984802	3,639679
0,081000	0,970764	4,006653
0,082000	0,987396	4,292297
0,083000	0,968018	4,999847
0,084000	0,989075	4,999847
0,085000	0,969849	4,999847
0,086000	0,984650	4,999847
0,087000	0,973206	4,999847
0,088000	0,980072	4,999847
0,089000	0,976715	3,790283
0,090000	0,976868	4,565735
0,091000	0,979156	3,876801
0,092000	0,973816	4,802399
0,093000	0,982361	4,999847
0,094000	0,971069	4,999847
0,095000	0,984344	4,999847
0,096000	0,968781	4,999847
0,097000	0,986786	4,999847
0,098000	0,966034	4,999847
0,099000	0,986176	3,107910
0,100000	0,969696	1,888275
0,101000	0,982361	4,728851
0,102000	0,973663	4,999847
0,103000	0,978699	4,999847
0,104000	0,976410	4,999847
0,105000	0,975189	4,999847
0,106000	0,979462	4,999847
0,107000	0,971527	4,999847
0,108000	0,982056	4,999847
0,109000	0,969543	3,687592
0,110000	0,984955	3,297119
0,111000	0,966644	4,853821
0,112000	0,985718	4,999847
0,113000	0,965729	4,999847
0,114000	0,984192	4,999847
0,115000	0,969849	4,999847
0,116000	0,979767	4,999847
0,117000	0,973358	4,999847
0,118000	0,976257	4,084320
0,119000	0,976410	3,397064
0,120000	0,973206	3,430939
0,121000	0,978851	3,945160
0,122000	0,969696	4,443207
0,123000	0,981140	4,999847
0,124000	0,967712	4,999847
0,125000	0,984039	4,999847
0,126000	0,965424	4,999847
0,127000	0,985413	4,999847
0,128000	0,965729	4,999847
0,129000	0,981140	3,606415
0,130000	0,969696	4,420776
0,131000	0,976868	2,813721
0,132000	0,973053	3,996429
0,133000	0,974121	4,999847
0,134000	0,975494	4,999847
0,135000	0,970306	4,999847
0,136000	0,978088	4,999847
0,137000	0,967560	4,999847
0,138000	0,980530	4,251556
0,139000	0,964661	3,399048
0,140000	0,982513	2,901764
0,141000	0,962982	4,139252
0,142000	0,982513	4,574280
0,143000	0,965729	4,999847
0,144000	0,977936	4,999847
0,145000	0,968933	4,999847
0,146000	0,974274	4,999847
0,147000	0,971985	4,999847
0,148000	0,970459	4,884644
0,149000	0,974579	3,934021
0,150000	0,968018	2,840881
0,151000	0,977173	3,697052
0,152000	0,966034	3,998108
0,153000	0,979309	4,999847
0,154000	0,963287	4,999847
0,155000	0,981293	4,999847
0,156000	0,962372	4,999847
0,157000	0,979462	4,999847
0,158000	0,965424	4,672699
0,159000	0,975342	3,787994
0,160000	0,969086	2,887115
0,161000	0,971527	4,712372
0,162000	0,971069	4,999847
0,163000	0,968475	4,999847
0,164000	0,973206	4,999847
0,165000	0,965424	4,999847
0,166000	0,975647	4,999847
0,167000	0,963440	4,999847
0,168000	0,977173	4,468689
0,169000	0,960236	3,766479
0,170000	0,978394	3,478394
0,171000	0,960693	4,999847
0,172000	0,975037	4,419861
0,173000	0,964355	4,999847
0,174000	0,971069	4,999847
0,175000	0,966949	4,999847
0,176000	0,968170	4,999847
0,177000	0,969543	4,999847
0,178000	0,964966	4,489136
0,179000	0,971375	3,383636
0,180000	0,962677	3,080750
0,181000	0,973663	4,999847
0,182000	0,960236	4,753418
0,183000	0,974274	4,999847
0,184000	0,957947	4,999847
0,185000	0,974121	4,999847
0,186000	0,960693	4,999847
0,187000	0,970001	4,999847
0,188000	0,962524	4,550629
0,189000	0,966644	4,174652
0,190000	0,964661	4,314880
0,191000	0,963440	4,145203
0,192000	0,966187	4,994507
0,193000	0,960846	4,999847
0,194000	0,967407	4,999847
0,195000	0,958710	4,999847
0,196000	0,968933	4,999847
0,197000	0,956726	4,999847
0,198000	0,970001	4,627991
0,199000	0,955811	4,130096
0,200000	0,968475	3,946533
0,201000	0,958099	3,351440
0,202000	0,965271	4,490967
0,203000	0,960083	4,999847
0,204000	0,962677	4,999847
0,205000	0,961761	4,999847
0,206000	0,959625	4,999847
0,207000	0,962982	4,999847
0,208000	0,957336	4,506989
0,209000	0,964203	4,873199
0,210000	0,955353	3,883514
0,211000	0,964813	3,674011
0,212000	0,953522	4,318085
0,213000	0,965118	4,999847
0,214000	0,953979	4,999847
0,215000	0,962524	4,999847
0,216000	0,955505	4,999847
0,217000	0,960541	4,999847
0,218000	0,956573	4,902649
0,219000	0,957336	3,753510
0,220000	0,957794	2,705231
0,221000	0,955505	4,942780
0,222000	0,959167	4,999847
0,223000	0,953827	4,999847
0,224000	0,959778	4,999847
0,225000	0,951843	4,999847
0,226000	0,960083	4,999847
0,227000	0,950775	4,999847
0,228000	0,960236	4,999847
0,229000	0,951080	4,108734
0,230000	0,957489	1,911774
0,231000	0,953217	4,932556
0,232000	0,955811	4,999847
0,233000	0,954132	4,999847
0,234000	0,953979	4,999847
0,235000	0,954132	4,999847
0,236000	0,951843	4,999847
0,237000	0,954742	4,999847
0,238000	0,950317	4,936066
0,239000	0,955963	3,494110
0,240000	0,949097	3,063965
0,241000	0,955505	3,802185
0,242000	0,947571	4,999847
0,243000	0,954437	4,999847
0,244000	0,948944	4,999847
0,245000	0,953827	4,999847
0,246000	0,950165	4,999847
0,247000	0,951538	4,999847
0,248000	0,950317	4,999847
0,249000	0,949860	4,345703
0,250000	0,951080	3,744659
0,251000	0,948334	4,027863
0,252000	0,951538	4,422760
0,253000	0,947266	4,999847
0,254000	0,951691	4,999847
0,255000	0,946503	4,999847
0,256000	0,951996	4,999847
0,257000	0,946350	4,999847
0,258000	0,951538	4,504852
0,259000	0,947418	4,447174
0,260000	0,950012	2,705688
0,261000	0,948029	4,871063
0,262000	0,948486	4,738922
0,263000	0,948334	4,999847
0,264000	0,946808	4,999847
0,265000	0,948792	4,999847
0,266000	0,946045	4,999847
0,267000	0,948486	4,999847
0,268000	0,945740	4,155426
0,269000	0,949097	4,626617
0,270000	0,944519	4,548492
0,271000	0,949249	2,901306
0,272000	0,945129	4,999847
0,273000	0,948334	4,999847
0,274000	0,945587	4,999847
0,275000	0,946655	4,999847
0,276000	0,946045	4,999847
0,277000	0,945587	4,999847
0,278000	0,945892	4,787903
0,279000	0,944977	3,213806
0,280000	0,946350	4,089050
0,281000	0,944672	4,999847
0,282000	0,947266	4,999847
0,283000	0,944366	4,999847
0,284000	0,947113	4,999847
0,285000	0,943451	4,999847
0,286000	0,947723	4,999847
0,287000	0,944366	4,999847
0,288000	0,946198	4,999847
0,289000	0,945129	3,777008
0,290000	0,945587	1,681519
0,291000	0,945435	4,158936
0,292000	0,944061	4,539642
0,293000	0,945282	4,999847
0,294000	0,943756	4,999847
0,295000	0,945282	4,999847
0,296000	0,943756	4,999847
0,297000	0,945129	4,999847
0,298000	0,942688	4,798126
0,299000	0,945740	3,365326
0,300000	0,942383	4,921417
0,301000	0,944977	3,582764
0,302000	0,942993	4,999847
0,303000	0,944672	4,999847
0,304000	0,942993	4,999847
0,305000	0,943451	4,999847
0,306000	0,943756	4,999847
0,307000	0,943146	4,999847
0,308000	0,943298	4,987030
0,309000	0,942230	4,031219
0,310000	0,943298	1,945038
0,311000	0,941467	4,314728
0,312000	0,943146	4,995422
0,313000	0,941772	4,999847
0,314000	0,944214	4,999847
0,315000	0,941620	4,999847
0,316000	0,943146	4,999847
0,317000	0,941620	4,999847
0,318000	0,943146	4,012299
0,319000	0,942078	3,457794
0,320000	0,942993	3,638306
0,321000	0,942535	4,525909
0,322000	0,942383	4,999847
0,323000	0,942688	4,999847
0,324000	0,942230	4,999847
0,325000	0,942535	4,999847
0,326000	0,941315	4,999847
0,327000	0,942841	4,999847
0,328000	0,940704	4,349213
0,329000	0,943604	3,755493
0,330000	0,941315	4,032593
0,331000	0,942688	3,475800
0,332000	0,941315	4,300842
0,333000	0,942993	4,999847
0,334000	0,941315	4,999847
0,335000	0,942383	4,999847
0,336000	0,941925	4,999847
0,337000	0,941772	4,999847
0,338000	0,941925	4,999847
0,339000	0,940857	3,518829
0,340000	0,941467	3,536682
0,341000	0,940552	4,526978
0,342000	0,941925	4,999847
0,343000	0,940247	4,999847
0,344000	0,941925	4,999847
0,345000	0,940399	4,999847
0,346000	0,941925	4,999847
0,347000	0,940399	4,999847
0,348000	0,941467	4,999847
0,349000	0,941010	4,396820
0,350000	0,941467	4,073792
0,351000	0,941162	4,034882
0,352000	0,941010	4,999847
0,353000	0,941162	4,999847
0,354000	0,941010	4,999847
0,355000	0,941620	4,999847
0,356000	0,940399	4,999847
0,357000	0,942230	4,999847
0,358000	0,940247	4,386139
0,359000	0,942078	3,100281
0,360000	0,940704	4,228973
0,361000	0,941467	4,616394
0,362000	0,940704	4,832611
0,363000	0,941162	4,999847
0,364000	0,940857	4,999847
0,365000	0,941620	4,999847
0,366000	0,941315	4,999847
0,367000	0,941467	4,999847
0,368000	0,941315	4,999847
0,369000	0,940552	3,450165
0,370000	0,940704	3,852081
0,371000	0,939636	3,305206
0,372000	0,941315	4,654694
0,373000	0,939941	4,999847
0,374000	0,941315	4,999847
0,375000	0,940552	4,999847
0,376000	0,940704	4,999847
0,377000	0,940399	4,999847
0,378000	0,941010	4,999847
0,379000	0,939636	2,359467
0,380000	0,940399	2,584076
0,381000	0,940704	4,895172
0,382000	0,940399	4,999847
0,383000	0,940399	4,999847
0,384000	0,940094	4,999847
0,385000	0,941010	4,999847
0,386000	0,940399	4,999847
0,387000	0,941315	4,999847
0,388000	0,940247	4,859314
0,389000	0,940857	4,078979
0,390000	0,940094	3,620758
0,391000	0,941010	2,962036
0,392000	0,940094	4,999847
0,393000	0,940399	4,999847
0,394000	0,940704	4,999847
0,395000	0,940857	4,999847
0,396000	0,940857	4,999847
0,397000	0,941315	4,999847
0,398000	0,941315	4,785614
0,399000	0,941315	3,668060
0,400000	0,941315	3,968048
0,401000	0,941467	4,582977
0,402000	0,941467	4,599457
0,403000	0,941772	4,999847
0,404000	0,941315	4,999847
0,405000	0,941620	4,999847
0,406000	0,941620	4,999847
0,407000	0,941620	4,999847
0,408000	0,941010	4,248352
0,409000	0,940399	3,444824
0,410000	0,941010	3,576965
0,411000	0,941010	4,474335
0,412000	0,940857	4,252167
0,413000	0,941162	4,999847
0,414000	0,941620	4,999847
0,415000	0,941315	4,999847
0,416000	0,941467	4,999847
0,417000	0,941620	4,999847
0,418000	0,941315	4,010773
0,419000	0,941467	3,780212
0,420000	0,957336	3,197937
0,421000	0,979004	4,356384
0,422000	0,987396	4,999847
0,423000	0,993652	4,999847
0,424000	0,991516	4,999847
0,425000	0,997162	4,999847
0,426000	0,991211	4,999847
0,427000	0,997772	4,999847
0,428000	0,988770	4,999847
0,429000	0,999298	4,454651
0,430000	0,988159	4,423981
0,431000	0,996704	2,883453
0,432000	0,989685	4,999847
0,433000	0,994110	4,999847
0,434000	0,991058	4,999847
0,435000	0,992279	4,999847
0,436000	0,992584	4,999847
0,437000	0,990143	4,999847
0,438000	0,994263	4,051056
0,439000	0,989075	3,617096
0,440000	0,996094	2,064819
0,441000	0,985565	4,772491
0,442000	0,995331	4,999847
0,443000	0,983124	4,999847
0,444000	0,995941	4,999847
0,445000	0,983734	4,999847
0,446000	0,993805	4,999847
0,447000	0,987549	4,999847
0,448000	0,989990	4,426117
0,449000	0,987244	3,678131
0,450000	0,987244	3,947296
0,451000	0,988922	3,792572
0,452000	0,984497	3,739777
0,453000	0,991364	4,999847
0,454000	0,982208	4,999847
0,455000	0,992584	4,999847
0,456000	0,979767	4,999847
0,457000	0,993500	4,999847
0,458000	0,977783	3,880920
0,459000	0,992279	3,443604
0,460000	0,980225	3,513031
0,461000	0,989380	4,660645
0,462000	0,983124	4,999847
0,463000	0,985870	4,999847
0,464000	0,984955	4,999847
0,465000	0,983429	4,999847
0,466000	0,987396	4,999847
0,467000	0,980377	4,999847
0,468000	0,988617	4,609528
0,469000	0,978088	3,267059
0,470000	0,990601	4,093323
0,471000	0,975800	3,556366
0,472000	0,992126	4,999847
0,473000	0,975189	4,999847
0,474000	0,989685	4,999847
0,475000	0,978699	4,999847
0,476000	0,985870	4,999847
0,477000	0,980835	4,999847
0,478000	0,982513	4,316864
0,479000	0,983734	4,010468
0,480000	0,979614	2,665100
0,481000	0,985260	4,999847
0,482000	0,976715	4,999847
0,483000	0,987701	4,999847
0,484000	0,974426	4,999847
0,485000	0,989075	4,999847
0,486000	0,971832	4,999847
0,487000	0,989990	4,999847
0,488000	0,973663	4,999847
0,489000	0,986176	4,794159
0,490000	0,976562	4,284668
0,491000	0,982971	3,245392
0,492000	0,979614	4,603729
0,493000	0,980072	4,999847
0,494000	0,982666	4,999847
0,495000	0,977325	4,999847
0,496000	0,984650	4,999847
0,497000	0,973816	4,999847
0,498000	0,986481	3,639221
0,499000	0,971222	3,743439
0,500000	0,988922	2,291718
0,501000	0,968933	3,933411
0,502000	0,987549	4,999847
0,503000	0,972443	4,999847
0,504000	0,984344	4,999847
0,505000	0,979614	4,999847
0,506000	0,982208	4,999847
0,507000	0,979462	4,999847
0,508000	0,977936	4,308624
0,509000	0,981445	4,640503
0,510000	0,974579	3,503113
0,511000	0,983887	4,463959
0,512000	0,971527	4,924622
0,513000	0,986786	4,999847
0,514000	0,969543	4,999847
0,515000	0,988159	4,999847
0,516000	0,968475	4,999847
0,517000	0,985260	4,999847
0,518000	0,972443	3,844452
0,519000	0,981750	4,432831
0,520000	0,975952	2,528229
0,521000	0,977936	4,999847
0,522000	0,978394	4,999847
0,523000	0,974731	4,999847
0,524000	0,982666	4,999847
0,525000	0,972900	4,999847
0,526000	0,984039	4,999847
0,527000	0,969696	4,999847
0,528000	0,985870	4,461975
0,529000	0,967255	3,425293
0,530000	0,987549	4,344025
0,531000	0,968323	3,668823
0,532000	0,983276	4,272308
0,533000	0,972290	4,999847
0,534000	0,979614	4,999847
0,535000	0,975342	4,999847
0,536000	0,976562	4,999847
0,537000	0,979004	4,999847
0,538000	0,972595	4,254303
0,539000	0,980835	3,943634
0,540000	0,970001	1,851196
0,541000	0,983887	4,999847
0,542000	0,966187	4,999847
0,543000	0,984497	4,999847
0,544000	0,964813	4,999847
0,545000	0,984650	4,999847
0,546000	0,968628	4,999847
0,547000	0,980377	4,999847
0,548000	0,971985	4,465027
0,549000	0,981598	3,737488
0,550000	0,977631	2,249298
0,551000	0,975342	3,576965
0,552000	0,978241	4,651489
0,553000	0,970917	4,999847
0,554000	0,980225	4,999847
0,555000	0,967865	4,999847
0,556000	0,982666	4,999847
0,557000	0,965424	4,999847
0,558000	0,984497	4,437561
0,559000	0,964355	4,191132
0,560000	0,981598	1,926422
0,561000	0,968475	4,999847
0,562000	0,978699	4,999847
0,563000	0,971985	4,999847
0,564000	0,974731	4,999847
0,565000	0,974884	4,999847
0,566000	0,971069	4,999847
0,567000	0,977631	4,999847
0,568000	0,968781	4,432983
0,569000	0,979309	4,086151
0,570000	0,965729	3,149872
0,571000	0,982056	4,249725
0,572000	0,963440	4,999847
0,573000	0,983582	4,999847
0,574000	0,964661	4,999847
0,575000	0,979462	4,999847
0,576000	0,968018	4,999847
0,577000	0,976410	4,999847
0,578000	0,972137	4,615173
0,579000	0,972595	3,219147
0,580000	0,973969	3,058777
0,581000	0,969696	4,999847
0,582000	0,977173	4,999847
0,583000	0,967255	4,999847
0,584000	0,979156	4,999847
0,585000	0,963440	4,999847
0,586000	0,980072	4,999847
0,587000	0,961609	4,999847
0,588000	0,979614	4,999847
0,589000	0,964203	3,849945
0,590000	0,976410	4,645996
0,591000	0,967560	3,524170
0,592000	0,972137	4,505768
0,593000	0,970306	4,999847
0,594000	0,968323	4,999847
0,595000	0,972900	4,999847
0,596000	0,966339	4,999847
0,597000	0,975189	4,999847
0,598000	0,964203	4,529266
0,599000	0,977173	3,915558
0,600000	0,961304	2,085724
0,601000	0,977936	4,176331
0,602000	0,960999	4,999847
0,603000	0,977020	4,999847
0,604000	0,963745	4,999847
0,605000	0,972900	4,999847
0,606000	0,966949	4,999847
0,607000	0,969696	4,999847
0,608000	0,969391	4,384918
0,609000	0,966797	4,353027
0,610000	0,970917	3,064880
0,611000	0,963440	3,322296
0,612000	0,972595	4,999847
0,613000	0,961304	4,999847
0,614000	0,973816	4,999847
0,615000	0,958710	4,999847
0,616000	0,976105	4,999847
0,617000	0,959778	4,999847
0,618000	0,972595	4,828339
0,619000	0,962677	3,246460
0,620000	0,968628	3,813324
0,621000	0,964813	4,999847
0,622000	0,965729	4,999847
0,623000	0,966797	4,999847
0,624000	0,963287	4,999847
0,625000	0,968781	4,999847
0,626000	0,960693	4,999847
0,627000	0,970154	4,999847
0,628000	0,958405	4,999847
0,629000	0,971375	3,943176
0,630000	0,956421	2,127380
0,631000	0,971069	3,320618
0,632000	0,958405	4,999847
0,633000	0,967865	4,999847
0,634000	0,960388	4,999847
0,635000	0,964050	4,999847
0,636000	0,961456	4,999847
0,637000	0,960846	4,999847
0,638000	0,963440	4,810944
0,639000	0,959015	2,727966
0,640000	0,965118	3,828278
0,641000	0,957184	4,999847
0,642000	0,965729	4,628906
0,643000	0,955200	4,999847
0,644000	0,966187	4,999847
0,645000	0,953827	4,999847
0,646000	0,964813	4,999847
0,647000	0,955811	4,999847
0,648000	0,962219	4,999847
0,649000	0,957489	3,658752
0,650000	0,959473	3,867798
0,651000	0,955963	4,381409
0,652000	0,954437	4,958801
0,653000	0,958252	4,999847
0,654000	0,954590	4,999847
0,655000	0,960999	4,999847
0,656000	0,953827	4,999847
0,657000	0,961304	4,999847
0,658000	0,951843	4,250641
0,659000	0,961761	2,940521
0,660000	0,951691	4,044952
0,661000	0,959930	4,497986
0,662000	0,953369	4,999847
0,663000	0,957031	4,999847
0,664000	0,954742	4,999847
0,665000	0,955048	4,999847
0,666000	0,955505	4,999847
0,667000	0,953064	4,999847
0,668000	0,955963	4,999847
0,669000	0,951538	3,877106
0,670000	0,956726	4,868927
0,671000	0,950012	3,198547
0,672000	0,956421	4,714966
0,673000	0,948792	4,999847
0,674000	0,956879	4,999847
0,675000	0,949554	4,999847
0,676000	0,955048	4,999847
0,677000	0,951080	4,999847
0,678000	0,952759	4,999847
0,679000	0,951538	3,529205
0,680000	0,951385	2,702942
0,681000	0,951843	4,208221
0,682000	0,950012	4,999847
0,683000	0,952759	4,999847
0,684000	0,949097	4,999847
0,685000	0,953674	4,999847
0,686000	0,947876	4,999847
0,687000	0,953064	4,999847
0,688000	0,947418	4,618225
0,689000	0,953369	4,412842
0,690000	0,948486	1,989441
0,691000	0,951233	3,289490
0,692000	0,949249	4,873505
0,693000	0,950165	4,999847
0,694000	0,949097	4,999847
0,695000	0,948334	4,999847
0,696000	0,949554	4,999847
0,697000	0,947266	4,999847
0,698000	0,949402	4,999847
0,699000	0,946198	3,512573
0,700000	0,949707	2,600861
0,701000	0,945740	4,999847
0,702000	0,950470	4,999847
0,703000	0,945587	4,999847
0,704000	0,950012	4,999847
0,705000	0,945892	4,999847
0,706000	0,948639	4,999847
0,707000	0,946808	4,999847
0,708000	0,947571	4,999847
0,709000	0,947571	4,458771
0,710000	0,946350	4,752655
0,711000	0,947418	3,469696
0,712000	0,945740	4,999847
0,713000	0,948029	4,999847
0,714000	0,944977	4,999847
0,715000	0,948181	4,999847
0,716000	0,944061	4,999847
0,717000	0,948029	4,999847
0,718000	0,943451	3,915863
0,719000	0,946350	3,184509
0,720000	0,944061	3,824921
0,721000	0,945435	4,159698
0,722000	0,944672	4,999847
0,723000	0,944824	4,999847
0,724000	0,945129	4,999847
0,725000	0,944519	4,999847
0,726000	0,945435	4,999847
0,727000	0,943909	4,999847
0,728000	0,945587	4,456787
0,729000	0,942841	3,917694
0,730000	0,945587	3,024750
0,731000	0,942688	3,499603
0,732000	0,945892	4,909210
0,733000	0,943146	4,999847
0,734000	0,944977	4,999847
0,735000	0,943451	4,999847
0,736000	0,944672	4,999847
0,737000	0,944061	4,999847
0,738000	0,943451	4,394684
0,739000	0,943909	3,647919
0,740000	0,943298	3,198395
0,741000	0,944061	4,712830
0,742000	0,942078	4,999847
0,743000	0,943909	4,999847
0,744000	0,941772	4,999847
0,745000	0,944214	4,999847
0,746000	0,941315	4,999847
0,747000	0,944366	4,999847
0,748000	0,942078	4,989471
0,749000	0,943451	4,688873
0,750000	0,942078	4,783936
0,751000	0,943146	4,179535
0,752000	0,942688	4,787140
0,753000	0,942383	4,999847
0,754000	0,941925	4,999847
0,755000	0,941620	4,999847
0,756000	0,942841	4,999847
0,757000	0,941925	4,999847
0,758000	0,943146	4,637756
0,759000	0,941010	3,010101
0,760000	0,943451	4,465637
0,761000	0,941315	4,325256
0,762000	0,943298	4,999847
0,763000	0,941620	4,999847
0,764000	0,942535	4,999847
0,765000	0,941467	4,999847
0,766000	0,942230	4,999847
0,767000	0,941772	4,999847
0,768000	0,942078	4,356995
0,769000	0,941620	4,291992
0,770000	0,941772	4,452209
0,771000	0,942841	3,876495
0,772000	0,941467	4,773865
0,773000	0,942841	4,999847
0,774000	0,940552	4,999847
0,775000	0,942535	4,999847
0,776000	0,940399	4,999847
0,777000	0,942383	4,999847
0,778000	0,940857	4,436340
0,779000	0,941925	3,790283
0,780000	0,941315	3,431396
0,781000	0,941467	4,132233
0,782000	0,941620	4,999847
0,783000	0,941467	4,999847
0,784000	0,941772	4,999847
0,785000	0,941315	4,999847
0,786000	0,941620	4,999847
0,787000	0,941162	4,999847
0,788000	0,941925	4,922791
0,789000	0,940094	4,797974
0,790000	0,941620	3,538818
0,791000	0,939941	3,418884
0,792000	0,942078	4,999847
0,793000	0,941010	4,999847
0,794000	0,941620	4,999847
0,795000	0,941315	4,999847
0,796000	0,941467	4,999847
0,797000	0,941162	4,999847
0,798000	0,940399	3,690338
0,799000	0,941162	3,992462
0,800000	0,940552	3,355103
0,801000	0,941315	3,327484
0,802000	0,940552	4,999847
0,803000	0,941620	4,999847
0,804000	0,940399	4,999847
0,805000	0,941467	4,999847
0,806000	0,939941	4,999847
0,807000	0,941620	4,999847
0,808000	0,940704	4,351501
0,809000	0,941010	4,570770
0,810000	0,940399	2,969360
0,811000	0,940094	3,845673
0,812000	0,939941	4,999847
0,813000	0,939941	4,999847
0,814000	0,940094	4,999847
0,815000	0,939789	4,999847
0,816000	0,940247	4,999847
0,817000	0,939026	4,999847
0,818000	0,940857	4,394226
0,819000	0,939789	3,555298
0,820000	0,940857	3,424530
0,821000	0,940094	4,083557
0,822000	0,940704	4,999847
0,823000	0,940552	4,999847
0,824000	0,940399	4,999847
0,825000	0,939941	4,999847
0,826000	0,940247	4,999847
0,827000	0,940247	4,999847
0,828000	0,939636	4,999847
0,829000	0,940704	4,415131
0,830000	0,939789	3,748169
0,831000	0,940247	4,148254
0,832000	0,939178	4,203796
0,833000	0,940552	4,999847
0,834000	0,940552	4,999847
0,835000	0,941467	4,999847
0,836000	0,941162	4,999847
0,837000	0,941162	4,999847
0,838000	0,941467	4,467163
0,839000	0,941162	3,719330
0,840000	0,941467	2,403107
0,841000	0,941467	4,999847
0,842000	0,941620	4,999847
0,843000	0,941620	4,999847
0,844000	0,941772	4,999847
0,845000	0,941772	4,999847
0,846000	0,941772	4,999847
0,847000	0,941772	4,999847
0,848000	0,941467	4,999847
0,849000	0,941772	3,503723
0,850000	0,941925	3,112335
0,851000	0,941467	4,999847
0,852000	0,941467	4,999847
0,853000	0,941620	4,999847
0,854000	0,941925	4,999847
0,855000	0,941620	4,999847
0,856000	0,940399	4,999847
0,857000	0,942688	4,999847
0,858000	0,966187	4,999847
0,859000	0,987701	3,101349
0,860000	0,985107	3,968964
0,861000	0,995483	4,999847
0,862000	0,991516	4,999847
0,863000	0,996246	4,999847
0,864000	0,993195	4,999847
0,865000	0,994110	4,999847
0,866000	0,993805	4,999847
0,867000	0,991669	4,999847
0,868000	0,994110	4,999847
0,869000	0,988922	3,601990
0,870000	0,994720	3,593140
0,871000	0,987396	4,959564
0,872000	0,996399	4,341125
0,873000	0,985870	4,999847
0,874000	0,997009	4,999847
0,875000	0,985260	4,999847
0,876000	0,993958	4,999847
0,877000	0,986938	4,999847
0,878000	0,991211	4,999847
0,879000	0,988312	3,544312
0,880000	0,989075	2,567902
0,881000	0,990143	4,843140
0,882000	0,986328	4,999847
0,883000	0,991669	4,999847
0,884000	0,983429	4,999847
0,885000	0,991974	4,999847
0,886000	0,981140	4,999847
0,887000	0,994568	4,999847
0,888000	0,980530	4,659729
0,889000	0,993805	3,633881
0,890000	0,981293	2,890625
0,891000	0,990143	4,999847
0,892000	0,983429	4,768066
0,893000	0,987396	4,999847
0,894000	0,985260	4,999847
0,895000	0,984650	4,999847
0,896000	0,987091	4,999847
0,897000	0,981750	4,999847
0,898000	0,988770	4,999847
0,899000	0,979004	3,027191
0,900000	0,990601	4,084625
0,901000	0,977173	4,999847
0,902000	0,992126	4,999847
0,903000	0,976105	4,999847
0,904000	0,990753	4,999847
0,905000	0,979156	4,999847
0,906000	0,987701	4,999847
0,907000	0,981598	4,999847
0,908000	0,984497	4,999847
0,909000	0,983887	3,672180
0,910000	0,981293	3,779602
0,911000	0,985870	4,669495
0,912000	0,978394	4,282532
0,913000	0,987701	4,999847
0,914000	0,975647	4,999847
0,915000	0,989685	4,999847
0,916000	0,973969	4,999847
0,917000	0,990906	4,876556
0,918000	0,973816	4,999847
0,919000	0,987396	3,110962
0,920000	0,976105	3,435211
0,921000	0,983276	4,999847
0,922000	0,979004	4,999847
0,923000	0,980530	4,999847
0,924000	0,981598	4,999847
0,925000	0,977478	4,999847
0,926000	0,984192	4,999847
0,927000	0,974579	4,999847
0,928000	0,986176	4,371185
0,929000	0,973053	3,950958
0,930000	0,988922	3,649139
0,931000	0,970306	4,194641
0,932000	0,988312	4,618683
0,933000	0,972137	4,999847
0,934000	0,984192	4,999847
0,935000	0,975800	4,999847
0,936000	0,981598	4,999847
0,937000	0,979462	4,999847
0,938000	0,978699	4,999847
0,939000	0,981598	2,605133
0,940000	0,975037	4,118652
0,941000	0,983429	4,999847
0,942000	0,972290	4,999847
0,943000	0,986023	4,999847
0,944000	0,969696	4,999847
0,945000	0,987396	4,999847
0,946000	0,968781	4,999847
0,947000	0,986481	4,999847
0,948000	0,972290	4,999847
0,949000	0,982361	4,124756
0,950000	0,975342	3,290863
0,951000	0,979309	4,288483
0,952000	0,977783	4,411926
0,953000	0,975800	4,999847
0,954000	0,981140	4,999847
0,955000	0,972443	4,999847
0,956000	0,982971	4,999847
0,957000	0,969849	4,999847
0,958000	0,984802	4,357452
0,959000	0,966339	2,742157
0,960000	0,986938	3,608246
0,961000	0,968323	4,999847
0,962000	0,984497	4,999847
0,963000	0,971680	4,999847
0,964000	0,979614	4,999847
0,965000	0,974121	4,999847
0,966000	0,976868	4,999847
0,967000	0,978088	4,999847
0,968000	0,973663	4,999390
0,969000	0,980682	4,083710
0,970000	0,970764	4,749603
0,971000	0,982819	3,720551
0,972000	0,967560	4,772797
0,973000	0,984802	4,999847
0,974000	0,965576	4,999847
0,975000	0,985870	4,999847
0,976000	0,968170	4,999847
0,977000	0,981445	4,999847
0,978000	0,971985	4,214630
0,979000	0,978241	3,465424
0,980000	0,975494	3,475037
0,981000	0,974426	4,999847
0,982000	0,977936	4,999847
0,983000	0,971222	4,999847
0,984000	0,980530	4,999847
0,985000	0,968933	4,999847
0,986000	0,982819	4,999847
0,987000	0,966492	4,999847
0,988000	0,984650	4,999847
0,989000	0,964661	3,867187
0,990000	0,984039	4,141998
0,991000	0,968475	4,572296
0,992000	0,979614	4,999847
0,993000	0,971527	4,999847
0,994000	0,975494	4,999847
0,995000	0,975037	4,999847
0,996000	0,972748	4,999847
0,997000	0,977173	4,999847
0,998000	0,969696	4,312592
0,999000	0,979767	3,033295

