LabVIEW Measurement	
Writer_Version	2
Reader_Version	2
Separator	Tab
Decimal_Separator	,
Multi_Headings	Yes
X_Columns	One
Time_Pref	Absolute
Operator	d.nicolai
Date	2023/11/09
Time	15:58:22,5385127999997216582
***End_of_Header***	
	
Channels	2		
Samples	1000	1000	
Date	2023/11/09	2023/11/09	
Time	15:58:28,8785125999995456083	15:58:28,8785125999995456083	
Y_Unit_Label	Volts	Volts	
X_Dimension	Time	Time	
X0	0,0000000000000000E+0	0,0000000000000000E+0	
Delta_X	0,001000	0,001000	
***End_of_Header***			
X_Value	powebox	triggerbox	Comment
0,000000	0,785522	0,892944
0,001000	0,792694	3,990021
0,002000	0,783997	4,999847
0,003000	0,794220	4,999847
0,004000	0,782471	4,999847
0,005000	0,794983	4,999847
0,006000	0,783081	4,999847
0,007000	0,792389	4,999847
0,008000	0,785828	4,999847
0,009000	0,790253	4,812775
0,010000	0,787506	3,570862
0,011000	0,788116	3,916626
0,012000	0,789185	3,696594
0,013000	0,785980	4,999847
0,014000	0,790558	4,999847
0,015000	0,783844	4,999847
0,016000	0,791779	4,999847
0,017000	0,782318	4,999847
0,018000	0,792694	4,641724
0,019000	0,780640	3,631439
0,020000	0,792542	0,975037
0,021000	0,782776	4,528656
0,022000	0,790253	4,999847
0,023000	0,785065	4,999847
0,024000	0,787811	4,999847
0,025000	0,785828	4,999847
0,026000	0,785217	4,999847
0,027000	0,788269	4,999847
0,028000	0,783997	4,840851
0,029000	0,789185	3,383331
0,030000	0,782166	4,999847
0,031000	0,790253	3,363800
0,032000	0,780487	3,665619
0,033000	0,790863	4,999847
0,034000	0,779877	4,999847
0,035000	0,789490	4,999847
0,036000	0,781708	4,999847
0,037000	0,787201	4,999847
0,038000	0,783386	4,817810
0,039000	0,785065	2,724609
0,040000	0,777283	3,085480
0,041000	0,774689	4,999847
0,042000	0,774689	4,386139
0,043000	0,771637	4,999847
0,044000	0,782318	4,999847
0,045000	0,777893	4,999847
0,046000	0,786743	4,999847
0,047000	0,778046	4,999847
0,048000	0,788116	4,999847
0,049000	0,778351	4,157257
0,050000	0,785828	3,980103
0,051000	0,780182	4,382019
0,052000	0,783844	3,911438
0,053000	0,781708	4,999847
0,054000	0,782166	4,999847
0,055000	0,782928	4,999847
0,056000	0,780945	4,999847
0,057000	0,783234	4,999847
0,058000	0,778961	4,372406
0,059000	0,784454	3,984222
0,060000	0,777740	0,461273
0,061000	0,784760	4,162445
0,062000	0,776672	4,260864
0,063000	0,784454	4,999847
0,064000	0,777283	4,999847
0,065000	0,782471	4,999847
0,066000	0,778503	4,999847
0,067000	0,780792	4,999847
0,068000	0,779114	4,962311
0,069000	0,778656	3,672791
0,070000	0,780640	2,406311
0,071000	0,777588	4,999847
0,072000	0,781097	3,529205
0,073000	0,776062	4,999847
0,074000	0,781250	4,999847
0,075000	0,774994	4,999847
0,076000	0,782013	4,999847
0,077000	0,774536	4,999847
0,078000	0,780945	4,999847
0,079000	0,775757	2,561951
0,080000	0,778961	4,924011
0,081000	0,776520	3,903198
0,082000	0,777435	4,654694
0,083000	0,777283	4,999847
0,084000	0,776520	4,999847
0,085000	0,777893	4,999847
0,086000	0,775452	4,999847
0,087000	0,778351	4,999847
0,088000	0,774536	4,999847
0,089000	0,778656	4,312286
0,090000	0,773315	2,598724
0,091000	0,778961	4,889374
0,092000	0,773468	3,088379
0,093000	0,777588	4,999847
0,094000	0,774384	4,999847
0,095000	0,776825	4,999847
0,096000	0,774841	4,999847
0,097000	0,774841	4,999847
0,098000	0,774536	4,999847
0,099000	0,774078	3,167267
0,100000	0,775299	1,422882
0,101000	0,773010	4,906616
0,102000	0,775909	4,840546
0,103000	0,772858	4,999847
0,104000	0,775909	4,999847
0,105000	0,771790	4,999847
0,106000	0,776215	4,999847
0,107000	0,772247	4,999847
0,108000	0,775299	4,671326
0,109000	0,772858	4,453278
0,110000	0,774078	4,485321
0,111000	0,773315	3,042755
0,112000	0,773163	3,351135
0,113000	0,774078	4,999847
0,114000	0,772552	4,999847
0,115000	0,774231	4,999847
0,116000	0,771637	4,999847
0,117000	0,774231	4,999847
0,118000	0,771179	4,344788
0,119000	0,774689	3,254852
0,120000	0,771179	4,999847
0,121000	0,774384	3,928986
0,122000	0,771027	4,852905
0,123000	0,772858	4,999847
0,124000	0,771484	4,999847
0,125000	0,771942	4,999847
0,126000	0,772095	4,999847
0,127000	0,771179	4,999847
0,128000	0,772247	4,999847
0,129000	0,770874	4,153290
0,130000	0,772705	4,371490
0,131000	0,771179	4,062958
0,132000	0,773163	4,361725
0,133000	0,769653	4,999847
0,134000	0,772858	4,999847
0,135000	0,769653	4,999847
0,136000	0,772095	4,999847
0,137000	0,770111	4,999847
0,138000	0,771637	4,530487
0,139000	0,770416	3,040619
0,140000	0,770874	2,319031
0,141000	0,770874	3,901672
0,142000	0,770111	4,999847
0,143000	0,771179	4,999847
0,144000	0,769501	4,999847
0,145000	0,771484	4,999847
0,146000	0,769348	4,999847
0,147000	0,771637	4,999847
0,148000	0,769348	4,978943
0,149000	0,771637	3,525391
0,150000	0,769501	4,999847
0,151000	0,771179	3,759155
0,152000	0,769653	3,420868
0,153000	0,770264	4,999847
0,154000	0,769806	4,999847
0,155000	0,769806	4,999847
0,156000	0,769958	4,999847
0,157000	0,769196	4,999847
0,158000	0,770416	4,292297
0,159000	0,768738	3,056183
0,160000	0,770721	3,094788
0,161000	0,768890	3,268433
0,162000	0,770721	4,690094
0,163000	0,768738	4,999847
0,164000	0,770874	4,999847
0,165000	0,768433	4,999847
0,166000	0,769958	4,999847
0,167000	0,768890	4,999847
0,168000	0,769501	4,954681
0,169000	0,769043	4,263611
0,170000	0,769043	4,383240
0,171000	0,769348	4,759064
0,172000	0,768890	3,026581
0,173000	0,769653	4,999847
0,174000	0,768280	4,999847
0,175000	0,769501	4,999847
0,176000	0,767822	4,999847
0,177000	0,769958	4,999847
0,178000	0,768127	4,353027
0,179000	0,769501	3,692017
0,180000	0,768585	3,859406
0,181000	0,769501	3,962708
0,182000	0,768585	4,953308
0,183000	0,768738	4,999847
0,184000	0,768738	4,999847
0,185000	0,768433	4,999847
0,186000	0,768738	4,999847
0,187000	0,768433	4,999847
0,188000	0,769043	4,697571
0,189000	0,767822	3,802338
0,190000	0,769196	3,188324
0,191000	0,767517	3,611908
0,192000	0,769501	3,922119
0,193000	0,767670	4,652405
0,194000	0,769196	4,999847
0,195000	0,767975	4,999847
0,196000	0,768890	4,999847
0,197000	0,768433	4,999847
0,198000	0,768433	4,197540
0,199000	0,768280	3,186493
0,200000	0,768127	3,034515
0,201000	0,768280	4,015656
0,202000	0,767975	4,591827
0,203000	0,768890	4,999847
0,204000	0,767670	4,999847
0,205000	0,768738	4,999847
0,206000	0,767822	4,999847
0,207000	0,768585	4,999847
0,208000	0,767059	4,307098
0,209000	0,768433	3,530884
0,210000	0,768127	4,144440
0,211000	0,768433	4,752655
0,212000	0,768280	4,037170
0,213000	0,767975	4,999847
0,214000	0,767975	4,999847
0,215000	0,767822	4,999847
0,216000	0,768280	4,999847
0,217000	0,767517	4,999847
0,218000	0,768280	4,005127
0,219000	0,767212	3,460846
0,220000	0,768738	4,311523
0,221000	0,767059	4,247131
0,222000	0,769043	4,999847
0,223000	0,767670	4,999847
0,224000	0,767975	4,999847
0,225000	0,767517	4,999847
0,226000	0,768127	4,999847
0,227000	0,767822	4,999847
0,228000	0,767365	4,999847
0,229000	0,767365	3,844757
0,230000	0,767059	4,242401
0,231000	0,767670	4,805298
0,232000	0,767059	4,670868
0,233000	0,768127	4,901428
0,234000	0,767059	4,999847
0,235000	0,768127	4,999847
0,236000	0,767212	4,999847
0,237000	0,767822	4,999847
0,238000	0,767212	4,624786
0,239000	0,767822	4,117889
0,240000	0,767365	0,875092
0,241000	0,767365	3,688354
0,242000	0,767517	4,594879
0,243000	0,767670	4,999847
0,244000	0,767517	4,999847
0,245000	0,766602	4,999847
0,246000	0,767670	4,999847
0,247000	0,767212	4,999847
0,248000	0,767212	4,999847
0,249000	0,767212	4,143524
0,250000	0,768280	3,415680
0,251000	0,768280	4,605408
0,252000	0,768890	3,874054
0,253000	0,768280	4,999847
0,254000	0,768738	4,999847
0,255000	0,768585	4,999847
0,256000	0,768433	4,999847
0,257000	0,768890	4,999847
0,258000	0,768738	4,999847
0,259000	0,768127	3,655396
0,260000	0,768280	3,798218
0,261000	0,768433	4,229431
0,262000	0,768280	4,999847
0,263000	0,768433	4,999847
0,264000	0,768433	4,999847
0,265000	0,768280	4,999847
0,266000	0,768280	4,999847
0,267000	0,768890	4,999847
0,268000	0,768738	4,999847
0,269000	0,768433	4,811096
0,270000	0,768433	3,285217
0,271000	0,768433	3,456879
0,272000	0,768585	4,233093
0,273000	0,768433	4,999847
0,274000	0,768738	4,999847
0,275000	0,784912	4,999847
0,276000	0,798645	4,999847
0,277000	0,797272	4,999847
0,278000	0,803986	4,834900
0,279000	0,801239	3,493195
0,280000	0,804138	2,131805
0,281000	0,802002	4,983063
0,282000	0,802460	4,999847
0,283000	0,802002	4,999847
0,284000	0,800781	4,999847
0,285000	0,802917	4,999847
0,286000	0,800018	4,999847
0,287000	0,803528	4,999847
0,288000	0,798492	4,630585
0,289000	0,804291	4,172058
0,290000	0,797882	4,514160
0,291000	0,804749	3,679352
0,292000	0,797729	3,811493
0,293000	0,802917	4,999847
0,294000	0,798798	4,999847
0,295000	0,801849	4,999847
0,296000	0,799408	4,999847
0,297000	0,800323	4,999847
0,298000	0,800018	4,999847
0,299000	0,798340	3,558502
0,300000	0,800934	3,827209
0,301000	0,797119	3,093262
0,302000	0,802002	4,500580
0,303000	0,795135	4,999847
0,304000	0,802155	4,999847
0,305000	0,793762	4,999847
0,306000	0,802765	4,999847
0,307000	0,794678	4,999847
0,308000	0,801239	4,999847
0,309000	0,796356	4,569550
0,310000	0,799103	3,278809
0,311000	0,797424	4,237366
0,312000	0,797424	3,832245
0,313000	0,798492	4,999847
0,314000	0,795593	4,999847
0,315000	0,800171	4,999847
0,316000	0,794373	4,999847
0,317000	0,801086	4,999847
0,318000	0,792847	4,763336
0,319000	0,801392	3,248749
0,320000	0,791473	1,914368
0,321000	0,800323	4,999847
0,322000	0,792847	4,865723
0,323000	0,798645	4,999847
0,324000	0,794830	4,999847
0,325000	0,796814	4,999847
0,326000	0,796509	4,999847
0,327000	0,795135	4,999847
0,328000	0,797729	4,999847
0,329000	0,793762	4,298401
0,330000	0,798798	4,191437
0,331000	0,792236	3,904572
0,332000	0,800323	3,050995
0,333000	0,790253	4,999847
0,334000	0,800934	4,999847
0,335000	0,790253	4,999847
0,336000	0,799103	4,999847
0,337000	0,791779	4,999847
0,338000	0,796967	4,999847
0,339000	0,793457	3,677521
0,340000	0,795135	2,932587
0,341000	0,795898	4,594727
0,342000	0,793457	4,194794
0,343000	0,797272	4,999847
0,344000	0,791473	4,999847
0,345000	0,798187	4,999847
0,346000	0,789795	4,999847
0,347000	0,778046	4,999847
0,348000	0,777130	4,594421
0,349000	0,794525	4,353180
0,350000	0,787354	3,753967
0,351000	0,796967	4,834595
0,352000	0,791168	3,619080
0,353000	0,795441	4,999847
0,354000	0,793304	4,999847
0,355000	0,793152	4,999847
0,356000	0,794830	4,999847
0,357000	0,791473	4,999847
0,358000	0,796661	4,827881
0,359000	0,789948	3,225403
0,360000	0,798035	3,428802
0,361000	0,788269	4,598389
0,362000	0,799408	4,999847
0,363000	0,786743	4,999847
0,364000	0,798340	4,999847
0,365000	0,789032	4,999847
0,366000	0,795898	4,999847
0,367000	0,791473	4,999847
0,368000	0,794067	4,999847
0,369000	0,792999	4,319458
0,370000	0,792084	2,620239
0,371000	0,794678	4,890137
0,372000	0,789948	3,767548
0,373000	0,796051	4,999847
0,374000	0,787964	4,999847
0,375000	0,797424	4,999847
0,376000	0,786743	4,999847
0,377000	0,798492	4,999847
0,378000	0,786438	4,724121
0,379000	0,796967	3,112488
0,380000	0,788422	2,657776
0,381000	0,794220	2,995605
0,382000	0,790863	3,773651
0,383000	0,792694	4,999847
0,384000	0,792847	4,999847
0,385000	0,790253	4,999847
0,386000	0,794525	4,999847
0,387000	0,788269	4,999847
0,388000	0,795593	4,999847
0,389000	0,787048	4,292450
0,390000	0,797272	2,930908
0,391000	0,785065	4,466705
0,392000	0,798340	3,458710
0,393000	0,786133	4,999847
0,394000	0,795135	4,999847
0,395000	0,788574	4,999847
0,396000	0,793152	4,999847
0,397000	0,790558	4,999847
0,398000	0,790710	4,439087
0,399000	0,792847	3,791962
0,400000	0,789642	2,550507
0,401000	0,794525	4,999847
0,402000	0,787506	4,310760
0,403000	0,795441	4,999847
0,404000	0,785828	4,999847
0,405000	0,796814	4,999847
0,406000	0,784454	4,999847
0,407000	0,797119	4,999847
0,408000	0,786133	4,999847
0,409000	0,793762	3,607178
0,410000	0,788574	3,902588
0,411000	0,791779	4,959106
0,412000	0,790253	3,658600
0,413000	0,789337	4,978027
0,414000	0,791626	4,999847
0,415000	0,787201	4,999847
0,416000	0,793152	4,999847
0,417000	0,785217	4,999847
0,418000	0,795135	4,958191
0,419000	0,784149	2,704620
0,420000	0,796356	3,313293
0,421000	0,783539	4,136505
0,422000	0,794983	4,454956
0,423000	0,785828	4,999847
0,424000	0,791931	4,999847
0,425000	0,788422	4,999847
0,426000	0,789795	4,999847
0,427000	0,790100	4,999847
0,428000	0,787964	4,999847
0,429000	0,791779	3,558807
0,430000	0,785828	3,004761
0,431000	0,793610	3,914337
0,432000	0,784149	3,112030
0,433000	0,794067	4,999847
0,434000	0,782318	4,999847
0,435000	0,795135	4,999847
0,436000	0,783234	4,999847
0,437000	0,793610	4,999847
0,438000	0,786133	4,999847
0,439000	0,791016	2,789459
0,440000	0,787811	3,718567
0,441000	0,788269	2,904358
0,442000	0,789490	4,206085
0,443000	0,786285	4,999847
0,444000	0,791321	4,999847
0,445000	0,784302	4,999847
0,446000	0,792389	4,999847
0,447000	0,783234	4,999847
0,448000	0,793762	4,787140
0,449000	0,780640	4,544220
0,450000	0,777130	3,681641
0,451000	0,771790	3,820038
0,452000	0,784149	3,438873
0,453000	0,782318	4,999847
0,454000	0,787201	4,999847
0,455000	0,786743	4,999847
0,456000	0,786133	4,999847
0,457000	0,788574	4,999847
0,458000	0,784149	4,033966
0,459000	0,789795	3,265076
0,460000	0,782776	2,465210
0,461000	0,790710	3,839874
0,462000	0,780945	4,783630
0,463000	0,791779	4,999847
0,464000	0,780640	4,999847
0,465000	0,790253	4,999847
0,466000	0,782318	4,999847
0,467000	0,788116	4,999847
0,468000	0,784302	4,999847
0,469000	0,785828	3,693695
0,470000	0,785675	3,570862
0,471000	0,784302	3,332214
0,472000	0,787201	4,333496
0,473000	0,782318	4,999847
0,474000	0,787811	4,999847
0,475000	0,780487	4,999847
0,476000	0,789185	4,999847
0,477000	0,779114	4,999847
0,478000	0,790253	4,107056
0,479000	0,780029	3,672485
0,480000	0,787811	3,996429
0,481000	0,781555	3,577118
0,482000	0,785675	4,999847
0,483000	0,782623	4,999847
0,484000	0,783386	4,999847
0,485000	0,783691	4,999847
0,486000	0,781403	4,999847
0,487000	0,785065	4,999847
0,488000	0,779572	4,999847
0,489000	0,785980	3,665924
0,490000	0,778503	4,229431
0,491000	0,786438	2,515411
0,492000	0,777283	3,926697
0,493000	0,785828	4,999847
0,494000	0,778656	4,999847
0,495000	0,784302	4,999847
0,496000	0,779877	4,999847
0,497000	0,782013	4,999847
0,498000	0,780792	4,999847
0,499000	0,780640	4,198914
0,500000	0,781860	2,702026
0,501000	0,778961	3,476105
0,502000	0,782013	4,317017
0,503000	0,777435	4,999847
0,504000	0,782928	4,999847
0,505000	0,776367	4,999847
0,506000	0,783539	4,999847
0,507000	0,775757	4,999847
0,508000	0,782623	4,999847
0,509000	0,776825	4,677124
0,510000	0,780792	3,332520
0,511000	0,777588	4,368286
0,512000	0,778809	3,802795
0,513000	0,779266	4,999847
0,514000	0,777893	4,999847
0,515000	0,778961	4,999847
0,516000	0,776672	4,999847
0,517000	0,779724	4,999847
0,518000	0,775452	4,999847
0,519000	0,780487	3,938141
0,520000	0,774689	2,759247
0,521000	0,780182	4,458923
0,522000	0,774384	4,388275
0,523000	0,779266	4,999847
0,524000	0,775299	4,999847
0,525000	0,777740	4,999847
0,526000	0,775909	4,999847
0,527000	0,775909	4,999847
0,528000	0,776215	4,999847
0,529000	0,774841	4,986420
0,530000	0,776520	4,469147
0,531000	0,773926	2,931061
0,532000	0,777130	4,368286
0,533000	0,773315	4,999847
0,534000	0,777740	4,999847
0,535000	0,772400	4,999847
0,536000	0,777435	4,999847
0,537000	0,772705	4,999847
0,538000	0,775909	4,044952
0,539000	0,773773	4,205780
0,540000	0,774689	2,145844
0,541000	0,773773	4,188995
0,542000	0,774231	4,677582
0,543000	0,774689	4,999847
0,544000	0,773163	4,999847
0,545000	0,775146	4,999847
0,546000	0,772095	4,999847
0,547000	0,775146	4,999847
0,548000	0,771332	4,990997
0,549000	0,775452	4,182129
0,550000	0,771484	2,555542
0,551000	0,775146	4,999847
0,552000	0,770416	4,686127
0,553000	0,769348	4,999847
0,554000	0,770416	4,999847
0,555000	0,772247	4,999847
0,556000	0,772247	4,999847
0,557000	0,772247	4,999847
0,558000	0,773163	4,999847
0,559000	0,771179	3,429718
0,560000	0,773010	2,194366
0,561000	0,770874	2,912445
0,562000	0,773773	4,999847
0,563000	0,770569	4,999847
0,564000	0,773621	4,999847
0,565000	0,770111	4,999847
0,566000	0,772705	4,999847
0,567000	0,770874	4,999847
0,568000	0,772705	4,935608
0,569000	0,771484	4,717712
0,570000	0,771637	3,145599
0,571000	0,771637	4,004822
0,572000	0,771027	3,919220
0,573000	0,772400	4,575348
0,574000	0,770416	4,999847
0,575000	0,772095	4,999847
0,576000	0,770416	4,999847
0,577000	0,772095	4,999847
0,578000	0,769501	4,962921
0,579000	0,772400	3,249054
0,580000	0,769501	4,169159
0,581000	0,771942	4,567413
0,582000	0,770264	4,621582
0,583000	0,771179	4,999847
0,584000	0,770416	4,999847
0,585000	0,770416	4,999847
0,586000	0,770874	4,999847
0,587000	0,769958	4,999847
0,588000	0,770721	4,999847
0,589000	0,769501	3,941345
0,590000	0,771027	2,935028
0,591000	0,768890	4,854431
0,592000	0,770874	4,277344
0,593000	0,768585	4,999847
0,594000	0,771027	4,999847
0,595000	0,768890	4,999847
0,596000	0,770111	4,999847
0,597000	0,769501	4,999847
0,598000	0,769958	4,999847
0,599000	0,769806	3,101196
0,600000	0,769348	2,810669
0,601000	0,769653	3,038330
0,602000	0,769196	4,867706
0,603000	0,770569	4,999847
0,604000	0,768585	4,999847
0,605000	0,770111	4,999847
0,606000	0,767975	4,999847
0,607000	0,770111	4,999847
0,608000	0,768585	4,999847
0,609000	0,770416	3,517303
0,610000	0,768738	3,929291
0,611000	0,769806	4,999847
0,612000	0,768890	4,411469
0,613000	0,768890	4,999847
0,614000	0,769043	4,999847
0,615000	0,768890	4,999847
0,616000	0,769501	4,999847
0,617000	0,768738	4,999847
0,618000	0,769501	4,999847
0,619000	0,768585	3,195496
0,620000	0,769653	3,313141
0,621000	0,767670	3,486023
0,622000	0,769958	4,550629
0,623000	0,767975	4,999847
0,624000	0,769501	4,999847
0,625000	0,768433	4,999847
0,626000	0,768585	4,999847
0,627000	0,768280	4,999847
0,628000	0,768280	4,999847
0,629000	0,768890	4,391479
0,630000	0,767975	2,659607
0,631000	0,768433	4,999847
0,632000	0,767670	2,559052
0,633000	0,768585	4,999847
0,634000	0,767975	4,999847
0,635000	0,769348	4,999847
0,636000	0,767822	4,999847
0,637000	0,769653	4,999847
0,638000	0,767670	4,749146
0,639000	0,768738	2,467957
0,640000	0,767517	3,782501
0,641000	0,768127	2,648010
0,642000	0,768585	4,384766
0,643000	0,767975	4,999847
0,644000	0,767670	4,999847
0,645000	0,767365	4,999847
0,646000	0,768127	4,999847
0,647000	0,767517	4,999847
0,648000	0,768280	4,999847
0,649000	0,767365	3,489532
0,650000	0,768585	2,906342
0,651000	0,767822	4,999847
0,652000	0,768890	2,860870
0,653000	0,767975	4,999847
0,654000	0,767517	4,999847
0,655000	0,767670	4,999847
0,656000	0,766907	4,999847
0,657000	0,767517	4,999847
0,658000	0,767822	4,800110
0,659000	0,767670	2,986298
0,660000	0,767517	4,134674
0,661000	0,768433	3,835602
0,662000	0,767517	4,702454
0,663000	0,768280	4,999847
0,664000	0,767212	4,999847
0,665000	0,768585	4,999847
0,666000	0,767212	4,999847
0,667000	0,768280	4,999847
0,668000	0,767365	4,999847
0,669000	0,767822	3,829193
0,670000	0,767822	4,772797
0,671000	0,768127	3,854370
0,672000	0,767822	4,205322
0,673000	0,767975	4,999847
0,674000	0,767822	4,999847
0,675000	0,767517	4,999847
0,676000	0,767822	4,999847
0,677000	0,767517	4,999847
0,678000	0,768585	4,953308
0,679000	0,767212	3,643646
0,680000	0,768280	4,965515
0,681000	0,767365	3,370514
0,682000	0,767822	4,293518
0,683000	0,767212	4,999847
0,684000	0,767975	4,999847
0,685000	0,767670	4,999847
0,686000	0,767822	4,999847
0,687000	0,767822	4,999847
0,688000	0,768433	4,658203
0,689000	0,768738	4,150696
0,690000	0,768738	4,446259
0,691000	0,768585	3,860168
0,692000	0,768585	3,193359
0,693000	0,768280	4,999847
0,694000	0,768127	4,999847
0,695000	0,768890	4,999847
0,696000	0,769348	4,999847
0,697000	0,769043	4,999847
0,698000	0,769501	4,999847
0,699000	0,769196	3,419952
0,700000	0,769196	3,373260
0,701000	0,768433	2,840576
0,702000	0,768585	4,999847
0,703000	0,768890	4,999847
0,704000	0,768890	4,999847
0,705000	0,768890	4,999847
0,706000	0,768738	4,999847
0,707000	0,768738	4,999847
0,708000	0,768738	4,999847
0,709000	0,768890	4,327393
0,710000	0,769043	3,985748
0,711000	0,768738	3,458557
0,712000	0,780945	3,356171
0,713000	0,794220	4,999847
0,714000	0,798798	4,999847
0,715000	0,803375	4,999847
0,716000	0,801392	4,999847
0,717000	0,805817	4,999847
0,718000	0,801392	4,901581
0,719000	0,806122	3,010101
0,720000	0,800629	2,956543
0,721000	0,806122	4,110260
0,722000	0,800934	4,858856
0,723000	0,804596	4,999847
0,724000	0,801392	4,999847
0,725000	0,802612	4,999847
0,726000	0,802460	4,999847
0,727000	0,801086	4,999847
0,728000	0,803680	4,999847
0,729000	0,799866	4,022675
0,730000	0,803986	4,810791
0,731000	0,799103	2,403870
0,732000	0,804443	4,674530
0,733000	0,796967	4,999847
0,734000	0,805206	4,999847
0,735000	0,796204	4,999847
0,736000	0,802612	4,999847
0,737000	0,798035	4,999847
0,738000	0,801239	4,982605
0,739000	0,799103	3,690643
0,740000	0,799408	2,564850
0,741000	0,800018	3,889313
0,742000	0,798645	4,779510
0,743000	0,800629	4,999847
0,744000	0,796661	4,999847
0,745000	0,802002	4,999847
0,746000	0,795441	4,999847
0,747000	0,803070	4,999847
0,748000	0,793915	4,999847
0,749000	0,802765	4,201508
0,750000	0,794525	3,699493
0,751000	0,801239	3,818359
0,752000	0,796356	3,580475
0,753000	0,798492	4,999847
0,754000	0,797729	4,999847
0,755000	0,797119	4,999847
0,756000	0,793915	4,999847
0,757000	0,780487	4,999847
0,758000	0,792236	4,487457
0,759000	0,790558	3,557129
0,760000	0,799103	3,809662
0,761000	0,791931	4,883881
0,762000	0,801392	4,999847
0,763000	0,791473	4,999847
0,764000	0,801239	4,999847
0,765000	0,793762	4,999847
0,766000	0,799255	4,999847
0,767000	0,794983	4,999847
0,768000	0,796356	4,999847
0,769000	0,796509	4,232483
0,770000	0,794983	3,226624
0,771000	0,798187	4,383240
0,772000	0,793610	3,614197
0,773000	0,798950	4,999847
0,774000	0,791626	4,999847
0,775000	0,800171	4,999847
0,776000	0,790100	4,999847
0,777000	0,801239	4,999847
0,778000	0,790253	4,705505
0,779000	0,799713	3,057556
0,780000	0,792236	3,661499
0,781000	0,797119	2,457733
0,782000	0,793915	4,999847
0,783000	0,795288	4,999847
0,784000	0,796509	4,999847
0,785000	0,792999	4,999847
0,786000	0,796967	4,999847
0,787000	0,791779	4,999847
0,788000	0,799103	4,971771
0,789000	0,790253	3,646088
0,790000	0,797729	2,840424
0,791000	0,787811	3,464966
0,792000	0,799713	4,147339
0,793000	0,789642	4,999847
0,794000	0,797577	4,999847
0,795000	0,791168	4,999847
0,796000	0,794983	4,999847
0,797000	0,793457	4,999847
0,798000	0,793457	4,892426
0,799000	0,795593	3,831329
0,800000	0,792236	2,143555
0,801000	0,796814	4,960785
0,802000	0,790253	4,999847
0,803000	0,798340	4,999847
0,804000	0,788269	4,999847
0,805000	0,798340	4,999847
0,806000	0,786285	4,999847
0,807000	0,798950	4,999847
0,808000	0,789032	4,999847
0,809000	0,796051	3,740082
0,810000	0,791168	4,239197
0,811000	0,793915	4,035034
0,812000	0,792999	3,223419
0,813000	0,792236	4,999847
0,814000	0,794678	4,999847
0,815000	0,790405	4,999847
0,816000	0,796509	4,999847
0,817000	0,788574	4,999847
0,818000	0,798187	4,999847
0,819000	0,787354	3,335419
0,820000	0,799408	4,119263
0,821000	0,787201	2,773132
0,822000	0,797424	4,855194
0,823000	0,789032	4,999847
0,824000	0,795288	4,999847
0,825000	0,791016	4,999847
0,826000	0,792542	4,999847
0,827000	0,792999	4,999847
0,828000	0,790710	4,999847
0,829000	0,794678	3,491058
0,830000	0,788879	3,033295
0,831000	0,796509	4,999847
0,832000	0,786591	4,389648
0,833000	0,797729	4,635620
0,834000	0,785675	4,999847
0,835000	0,798340	4,999847
0,836000	0,786438	4,999847
0,837000	0,795441	4,999847
0,838000	0,788269	4,999847
0,839000	0,793152	3,637848
0,840000	0,790863	3,931427
0,841000	0,791168	4,314880
0,842000	0,792542	4,999847
0,843000	0,789032	4,999847
0,844000	0,794525	4,999847
0,845000	0,787506	4,999847
0,846000	0,795746	4,999847
0,847000	0,786133	4,999847
0,848000	0,797272	4,999847
0,849000	0,783997	3,863678
0,850000	0,796814	3,680267
0,851000	0,786438	4,751129
0,852000	0,794373	2,933197
0,853000	0,789032	4,495544
0,854000	0,791931	4,999847
0,855000	0,790863	4,999847
0,856000	0,789337	4,999847
0,857000	0,792542	4,999847
0,858000	0,787811	4,682007
0,859000	0,775909	3,806915
0,860000	0,772858	4,444733
0,861000	0,788879	3,766632
0,862000	0,781555	3,719330
0,863000	0,795593	4,999847
0,864000	0,783234	4,999847
0,865000	0,794830	4,999847
0,866000	0,786438	4,999847
0,867000	0,792236	4,999847
0,868000	0,788727	4,999847
0,869000	0,790558	4,366913
0,870000	0,790253	2,655487
0,871000	0,788269	3,524017
0,872000	0,791779	2,328949
0,873000	0,786285	4,999847
0,874000	0,793304	4,999847
0,875000	0,784607	4,999847
0,876000	0,795135	4,999847
0,877000	0,782776	4,999847
0,878000	0,795898	4,999847
0,879000	0,783844	3,635254
0,880000	0,793457	2,804871
0,881000	0,786438	4,785156
0,882000	0,790863	4,999847
0,883000	0,787811	4,999847
0,884000	0,787811	4,999847
0,885000	0,789642	4,999847
0,886000	0,786591	4,999847
0,887000	0,791168	4,999847
0,888000	0,783997	4,999847
0,889000	0,792542	4,812775
0,890000	0,782928	3,115234
0,891000	0,793457	4,192047
0,892000	0,781708	3,488007
0,893000	0,793610	4,999847
0,894000	0,783234	4,999847
0,895000	0,791168	4,999847
0,896000	0,785217	4,999847
0,897000	0,788422	4,999847
0,898000	0,787201	4,999847
0,899000	0,786285	3,334045
0,900000	0,788574	4,225922
0,901000	0,784302	3,686829
0,902000	0,789795	4,999847
0,903000	0,783081	4,999847
0,904000	0,791016	4,999847
0,905000	0,781555	4,999847
0,906000	0,791931	4,999847
0,907000	0,780487	4,999847
0,908000	0,790558	4,999847
0,909000	0,782776	3,930969
0,910000	0,788422	3,347626
0,911000	0,784454	3,204193
0,912000	0,785828	3,295135
0,913000	0,785675	4,999847
0,914000	0,784607	4,999847
0,915000	0,786896	4,999847
0,916000	0,782166	4,999847
0,917000	0,787659	4,999847
0,918000	0,781250	4,720306
0,919000	0,789032	3,232117
0,920000	0,779114	2,941895
0,921000	0,789185	3,395538
0,922000	0,779724	4,994354
0,923000	0,787354	4,999847
0,924000	0,781403	4,999847
0,925000	0,784760	4,999847
0,926000	0,782623	4,999847
0,927000	0,782623	4,999847
0,928000	0,783539	4,999847
0,929000	0,781097	4,435577
0,930000	0,784302	3,049469
0,931000	0,779724	3,951721
0,932000	0,784912	3,690948
0,933000	0,778351	4,999847
0,934000	0,786133	4,999847
0,935000	0,777435	4,999847
0,936000	0,785675	4,999847
0,937000	0,778351	4,999847
0,938000	0,783539	4,976349
0,939000	0,779877	3,135071
0,940000	0,782318	4,999847
0,941000	0,781097	3,317871
0,942000	0,780182	4,967041
0,943000	0,781555	4,999847
0,944000	0,779114	4,999847
0,945000	0,782166	4,999847
0,946000	0,777435	4,999847
0,947000	0,782013	4,999847
0,948000	0,776520	4,588776
0,949000	0,782928	4,009399
0,950000	0,776215	4,232941
0,951000	0,781860	4,046173
0,952000	0,776520	3,800201
0,953000	0,780182	4,999847
0,954000	0,777130	4,999847
0,955000	0,777740	4,999847
0,956000	0,778198	4,999847
0,957000	0,777130	4,999847
0,958000	0,779114	4,382935
0,959000	0,776672	3,787537
0,960000	0,779419	4,384155
0,961000	0,774994	2,884521
0,962000	0,774689	4,127502
0,963000	0,772247	4,999847
0,964000	0,778503	4,999847
0,965000	0,773773	4,999847
0,966000	0,778503	4,999847
0,967000	0,774536	4,999847
0,968000	0,776825	4,999847
0,969000	0,775909	4,345398
0,970000	0,775757	3,984985
0,971000	0,776215	4,251556
0,972000	0,774536	3,518982
0,973000	0,776672	4,999847
0,974000	0,774689	4,999847
0,975000	0,777283	4,999847
0,976000	0,773315	4,999847
0,977000	0,777435	4,999847
0,978000	0,773010	4,410858
0,979000	0,776825	4,055786
0,980000	0,772705	2,285309
0,981000	0,775604	4,104004
0,982000	0,773468	4,999847
0,983000	0,774994	4,999847
0,984000	0,774231	4,999847
0,985000	0,774231	4,999847
0,986000	0,774536	4,999847
0,987000	0,773315	4,999847
0,988000	0,774689	4,433136
0,989000	0,772858	4,413147
0,990000	0,774994	2,971497
0,991000	0,771942	4,636536
0,992000	0,775146	3,418884
0,993000	0,771790	4,999847
0,994000	0,775299	4,999847
0,995000	0,771942	4,999847
0,996000	0,773773	4,999847
0,997000	0,772705	4,999847
0,998000	0,773163	4,813232
0,999000	0,773010	3,466339

