LabVIEW Measurement	
Writer_Version	2
Reader_Version	2
Separator	Tab
Decimal_Separator	,
Multi_Headings	Yes
X_Columns	One
Time_Pref	Absolute
Operator	d.nicolai
Date	2023/11/09
Time	15:58:22,5385127999997216582
***End_of_Header***	
	
Channels	2		
Samples	1000	1000	
Date	2023/11/09	2023/11/09	
Time	15:58:27,8285167999995714958	15:58:27,8285167999995714958	
Y_Unit_Label	Volts	Volts	
X_Dimension	Time	Time	
X0	0,0000000000000000E+0	0,0000000000000000E+0	
Delta_X	0,001000	0,001000	
***End_of_Header***			
X_Value	powebox	triggerbox	Comment
0,000000	0,769196	0,989685
0,001000	0,769348	3,058777
0,002000	0,769196	4,559784
0,003000	0,769043	4,999847
0,004000	0,768890	4,999847
0,005000	0,769196	4,999847
0,006000	0,768890	4,999847
0,007000	0,769043	4,997559
0,008000	0,769348	4,371490
0,009000	0,768890	3,322601
0,010000	0,769043	4,242554
0,011000	0,768890	3,913422
0,012000	0,781708	4,999847
0,013000	0,795746	4,999847
0,014000	0,798645	4,999847
0,015000	0,804749	4,999847
0,016000	0,801544	4,999847
0,017000	0,806122	4,999847
0,018000	0,800476	4,999847
0,019000	0,806580	4,371338
0,020000	0,801239	3,970795
0,021000	0,804901	2,837067
0,022000	0,802002	4,354553
0,023000	0,803680	4,999847
0,024000	0,802765	4,999847
0,025000	0,802155	4,999847
0,026000	0,802765	4,999847
0,027000	0,800934	4,999847
0,028000	0,803833	4,995575
0,029000	0,799713	3,770752
0,030000	0,804138	0,995026
0,031000	0,798340	4,474182
0,032000	0,804749	4,999847
0,033000	0,796661	4,999847
0,034000	0,804749	4,999847
0,035000	0,798187	4,999847
0,036000	0,802460	4,999847
0,037000	0,799561	4,999847
0,038000	0,800934	4,427032
0,039000	0,800171	4,437256
0,040000	0,799103	4,617157
0,041000	0,800629	3,104706
0,042000	0,798035	4,609985
0,043000	0,801849	4,999847
0,044000	0,795898	4,999847
0,045000	0,802460	4,999847
0,046000	0,794373	4,999847
0,047000	0,803375	4,762573
0,048000	0,793915	4,999847
0,049000	0,801849	3,987274
0,050000	0,795288	2,599487
0,051000	0,800018	4,783020
0,052000	0,796509	4,999847
0,053000	0,798187	4,999847
0,054000	0,798645	4,999847
0,055000	0,796967	4,999847
0,056000	0,800018	4,999847
0,057000	0,794983	4,999847
0,058000	0,800781	4,999847
0,059000	0,793457	3,965759
0,060000	0,802002	4,836426
0,061000	0,791626	3,224182
0,062000	0,802155	4,585571
0,063000	0,792847	4,999847
0,064000	0,800476	4,999847
0,065000	0,790253	4,999847
0,066000	0,775299	4,999847
0,067000	0,785065	4,999847
0,068000	0,791626	4,483643
0,069000	0,794983	3,312836
0,070000	0,793457	2,085266
0,071000	0,798340	4,999847
0,072000	0,792389	4,999847
0,073000	0,799866	4,999847
0,074000	0,790710	4,999847
0,075000	0,801239	4,999847
0,076000	0,789948	4,999847
0,077000	0,800781	4,999847
0,078000	0,791626	4,999847
0,079000	0,798187	4,130554
0,080000	0,793152	2,591248
0,081000	0,795898	3,580933
0,082000	0,794983	4,871979
0,083000	0,794525	4,999847
0,084000	0,796356	4,999847
0,085000	0,792542	4,999847
0,086000	0,798340	4,999847
0,087000	0,790863	4,807434
0,088000	0,799713	4,999847
0,089000	0,789490	3,565521
0,090000	0,800476	2,592468
0,091000	0,788879	4,611359
0,092000	0,799713	4,974670
0,093000	0,791168	4,999847
0,094000	0,796814	4,999847
0,095000	0,793304	4,999847
0,096000	0,795135	4,999847
0,097000	0,795135	4,999847
0,098000	0,793304	4,999847
0,099000	0,796967	4,243622
0,100000	0,791626	4,268341
0,101000	0,797577	4,129028
0,102000	0,789185	3,877716
0,103000	0,798950	4,999847
0,104000	0,787811	4,999847
0,105000	0,800171	4,999847
0,106000	0,788269	4,999847
0,107000	0,798187	4,999847
0,108000	0,790710	4,999847
0,109000	0,795746	3,325806
0,110000	0,792542	2,790375
0,111000	0,793152	4,999847
0,112000	0,794067	4,999847
0,113000	0,791321	4,999847
0,114000	0,796509	4,999847
0,115000	0,789185	4,999847
0,116000	0,797424	4,999847
0,117000	0,787659	4,999847
0,118000	0,798645	4,999847
0,119000	0,785828	3,614960
0,120000	0,798492	3,630524
0,121000	0,787811	3,067932
0,122000	0,796051	4,261017
0,123000	0,790558	4,829102
0,124000	0,794067	4,999847
0,125000	0,792542	4,999847
0,126000	0,791626	4,999847
0,127000	0,794220	4,999847
0,128000	0,790100	4,999847
0,129000	0,795898	2,795105
0,130000	0,788574	1,788483
0,131000	0,797424	4,797974
0,132000	0,786591	4,999847
0,133000	0,798645	4,999847
0,134000	0,785675	4,999847
0,135000	0,797424	4,999847
0,136000	0,788116	4,999847
0,137000	0,794373	4,999847
0,138000	0,790558	4,999847
0,139000	0,792542	3,925934
0,140000	0,792694	1,914062
0,141000	0,789948	4,536743
0,142000	0,793610	4,744720
0,143000	0,788422	4,999847
0,144000	0,795441	4,999847
0,145000	0,786896	4,999847
0,146000	0,797119	4,999847
0,147000	0,784607	4,999847
0,148000	0,797577	4,999847
0,149000	0,785065	3,080139
0,150000	0,795135	4,026184
0,151000	0,787811	4,841919
0,152000	0,792999	4,446259
0,153000	0,789948	4,999847
0,154000	0,790558	4,999847
0,155000	0,791931	4,999847
0,156000	0,788727	4,999847
0,157000	0,793915	4,999847
0,158000	0,787354	4,941101
0,159000	0,795593	3,354187
0,160000	0,785522	4,775696
0,161000	0,796509	3,288269
0,162000	0,783997	3,891754
0,163000	0,796814	4,999847
0,164000	0,785675	4,999847
0,165000	0,793762	4,999847
0,166000	0,787964	4,999847
0,167000	0,791321	4,999847
0,168000	0,778503	4,999847
0,169000	0,778503	3,832703
0,170000	0,785980	2,113800
0,171000	0,785370	4,999847
0,172000	0,792236	4,419098
0,173000	0,784760	4,999847
0,174000	0,794373	4,999847
0,175000	0,783997	4,999847
0,176000	0,795441	4,999847
0,177000	0,782928	4,999847
0,178000	0,794373	4,999847
0,179000	0,785828	3,273468
0,180000	0,792389	4,684143
0,181000	0,787354	3,936920
0,182000	0,789490	4,279938
0,183000	0,788879	4,999847
0,184000	0,787506	4,999847
0,185000	0,791016	4,999847
0,186000	0,785675	4,999847
0,187000	0,791931	4,999847
0,188000	0,784149	4,999847
0,189000	0,793457	3,287201
0,190000	0,782013	3,578186
0,191000	0,794373	4,762878
0,192000	0,782013	4,999847
0,193000	0,790405	4,999847
0,194000	0,783844	4,999847
0,195000	0,789032	4,999847
0,196000	0,786591	4,999847
0,197000	0,787506	4,999847
0,198000	0,787811	4,835815
0,199000	0,785065	4,587402
0,200000	0,789032	4,440613
0,201000	0,783691	2,900085
0,202000	0,790253	4,586182
0,203000	0,781860	4,999847
0,204000	0,791626	4,999847
0,205000	0,780487	4,999847
0,206000	0,791931	4,999847
0,207000	0,781860	4,999847
0,208000	0,789185	4,368439
0,209000	0,784302	3,417206
0,210000	0,786743	3,619385
0,211000	0,785065	3,781586
0,212000	0,785828	4,999847
0,213000	0,786591	4,999847
0,214000	0,783081	4,999847
0,215000	0,787811	4,999847
0,216000	0,781860	4,999847
0,217000	0,789185	4,999847
0,218000	0,780334	4,640656
0,219000	0,789490	4,094849
0,220000	0,779266	3,492584
0,221000	0,788269	3,370819
0,222000	0,780334	4,572906
0,223000	0,786285	4,999847
0,224000	0,782013	4,999847
0,225000	0,784454	4,999847
0,226000	0,783386	4,999847
0,227000	0,782776	4,999847
0,228000	0,784149	4,371796
0,229000	0,780640	3,015747
0,230000	0,785522	2,843475
0,231000	0,778656	4,062500
0,232000	0,786285	4,999847
0,233000	0,777435	4,999847
0,234000	0,786591	4,999847
0,235000	0,777893	4,999847
0,236000	0,784760	4,999847
0,237000	0,778961	4,999847
0,238000	0,782013	4,523621
0,239000	0,779877	4,066772
0,240000	0,780792	1,669464
0,241000	0,781097	2,724304
0,242000	0,779572	4,999847
0,243000	0,781860	4,999847
0,244000	0,778351	4,999847
0,245000	0,782166	4,999847
0,246000	0,777435	4,999847
0,247000	0,782928	4,956818
0,248000	0,775909	4,041138
0,249000	0,782623	3,538055
0,250000	0,775909	2,735443
0,251000	0,780792	4,630585
0,252000	0,777435	4,999847
0,253000	0,779724	4,999847
0,254000	0,778503	4,999847
0,255000	0,778656	4,999847
0,256000	0,779114	4,999847
0,257000	0,776672	4,999847
0,258000	0,778809	4,508057
0,259000	0,775909	4,436188
0,260000	0,779877	1,151581
0,261000	0,774689	3,732910
0,262000	0,779724	4,733429
0,263000	0,773773	4,999847
0,264000	0,779419	4,999847
0,265000	0,774994	4,999847
0,266000	0,778351	4,999847
0,267000	0,775604	4,952393
0,268000	0,776825	3,845367
0,269000	0,776672	3,446045
0,270000	0,775909	3,252869
0,271000	0,773773	2,773285
0,272000	0,773163	4,999847
0,273000	0,776367	4,999847
0,274000	0,773468	4,999847
0,275000	0,777435	4,999847
0,276000	0,773010	4,999847
0,277000	0,777283	4,999847
0,278000	0,773010	4,999847
0,279000	0,777283	4,389954
0,280000	0,774536	3,037262
0,281000	0,775757	4,285126
0,282000	0,774078	4,810181
0,283000	0,774384	4,999847
0,284000	0,774384	4,999847
0,285000	0,773468	4,999847
0,286000	0,774384	4,999847
0,287000	0,772858	4,999847
0,288000	0,774536	4,999847
0,289000	0,772400	4,184723
0,290000	0,774994	2,214661
0,291000	0,771637	4,039459
0,292000	0,775452	4,999847
0,293000	0,771484	4,999847
0,294000	0,774689	4,999847
0,295000	0,772400	4,999847
0,296000	0,773773	4,999847
0,297000	0,773010	4,999847
0,298000	0,773315	4,561005
0,299000	0,773163	3,743744
0,300000	0,772095	1,353760
0,301000	0,773468	4,068298
0,302000	0,771484	4,459686
0,303000	0,773773	4,999847
0,304000	0,771179	4,999847
0,305000	0,773621	4,999847
0,306000	0,770569	4,999847
0,307000	0,773468	4,999847
0,308000	0,771027	4,105072
0,309000	0,773315	3,532867
0,310000	0,771484	2,153625
0,311000	0,771790	4,589691
0,312000	0,771790	4,999847
0,313000	0,771637	4,999847
0,314000	0,771484	4,999847
0,315000	0,770721	4,999847
0,316000	0,772095	4,999847
0,317000	0,770874	4,999847
0,318000	0,772247	4,999847
0,319000	0,770416	3,740387
0,320000	0,772858	2,201538
0,321000	0,770264	3,649292
0,322000	0,772552	4,999847
0,323000	0,770264	4,999847
0,324000	0,771179	4,999847
0,325000	0,770569	4,999847
0,326000	0,770721	4,999847
0,327000	0,770874	4,999847
0,328000	0,770111	4,902802
0,329000	0,771179	3,256073
0,330000	0,769806	1,805115
0,331000	0,770874	4,972992
0,332000	0,769501	4,735718
0,333000	0,771179	4,999847
0,334000	0,769501	4,999847
0,335000	0,771484	4,999847
0,336000	0,769348	4,999847
0,337000	0,770874	4,999847
0,338000	0,769806	4,804687
0,339000	0,770569	4,001770
0,340000	0,770111	4,411011
0,341000	0,770264	3,906555
0,342000	0,769958	4,048615
0,343000	0,769653	4,999847
0,344000	0,770569	4,999847
0,345000	0,769196	4,999847
0,346000	0,770569	4,999847
0,347000	0,768890	4,999847
0,348000	0,770569	4,999847
0,349000	0,768433	3,603058
0,350000	0,771179	2,783661
0,351000	0,768738	4,888000
0,352000	0,769806	4,999847
0,353000	0,769043	4,999847
0,354000	0,769501	4,999847
0,355000	0,769348	4,999847
0,356000	0,769653	4,999847
0,357000	0,769958	4,999847
0,358000	0,769043	4,999847
0,359000	0,769501	4,107056
0,360000	0,768433	1,913300
0,361000	0,770111	4,554901
0,362000	0,768585	4,817200
0,363000	0,769958	4,999847
0,364000	0,768585	4,999847
0,365000	0,769958	4,999847
0,366000	0,768890	4,999847
0,367000	0,769958	4,999847
0,368000	0,769348	4,999847
0,369000	0,769348	3,011017
0,370000	0,769043	3,389587
0,371000	0,768738	3,900757
0,372000	0,768890	4,999847
0,373000	0,767212	4,999847
0,374000	0,768127	4,999847
0,375000	0,767517	4,999847
0,376000	0,769043	4,999847
0,377000	0,768127	4,999847
0,378000	0,769958	4,999847
0,379000	0,768433	3,262329
0,380000	0,769348	4,359283
0,381000	0,768433	3,818665
0,382000	0,768738	4,533081
0,383000	0,768280	4,999847
0,384000	0,768890	4,999847
0,385000	0,768890	4,999847
0,386000	0,768433	4,999847
0,387000	0,768890	4,999847
0,388000	0,767975	4,972076
0,389000	0,768433	2,817535
0,390000	0,768127	2,739258
0,391000	0,768433	4,382477
0,392000	0,767670	4,999847
0,393000	0,769043	4,999847
0,394000	0,767975	4,999847
0,395000	0,768890	4,999847
0,396000	0,768127	4,999847
0,397000	0,768890	4,999847
0,398000	0,768585	4,999847
0,399000	0,768127	4,576569
0,400000	0,768280	2,632751
0,401000	0,767975	4,406738
0,402000	0,768127	4,888458
0,403000	0,767517	4,999847
0,404000	0,768738	4,999847
0,405000	0,767975	4,999847
0,406000	0,769043	4,999847
0,407000	0,767822	4,999847
0,408000	0,768738	4,999847
0,409000	0,768127	3,362122
0,410000	0,768433	3,754272
0,411000	0,768433	4,599304
0,412000	0,768738	4,999847
0,413000	0,768433	4,999847
0,414000	0,767975	4,999847
0,415000	0,767822	4,999847
0,416000	0,767517	4,999847
0,417000	0,767975	4,999847
0,418000	0,767365	4,946747
0,419000	0,768433	4,324646
0,420000	0,767975	3,943329
0,421000	0,768585	2,613983
0,422000	0,768127	4,328461
0,423000	0,768433	4,999847
0,424000	0,768127	4,999847
0,425000	0,769043	4,999847
0,426000	0,768433	4,999847
0,427000	0,768738	4,999847
0,428000	0,768738	3,896942
0,429000	0,768433	3,571014
0,430000	0,768890	2,682953
0,431000	0,768890	4,837799
0,432000	0,768433	4,999847
0,433000	0,768890	4,999847
0,434000	0,769043	4,999847
0,435000	0,768890	4,999847
0,436000	0,769043	4,999847
0,437000	0,769501	4,999847
0,438000	0,768890	4,364624
0,439000	0,769043	4,485779
0,440000	0,769043	4,440765
0,441000	0,769196	3,910217
0,442000	0,769043	4,326019
0,443000	0,769043	4,999847
0,444000	0,769043	4,999847
0,445000	0,768585	4,999847
0,446000	0,769043	4,999847
0,447000	0,769501	4,999847
0,448000	0,769196	4,694977
0,449000	0,771942	3,056946
0,450000	0,785980	1,943207
0,451000	0,799866	4,923553
0,452000	0,799408	4,857483
0,453000	0,804596	4,999847
0,454000	0,802155	4,999847
0,455000	0,804291	4,999847
0,456000	0,803223	4,999847
0,457000	0,802917	4,999847
0,458000	0,803680	4,999847
0,459000	0,801849	4,428253
0,460000	0,804138	3,403473
0,461000	0,800018	4,011841
0,462000	0,804443	4,391174
0,463000	0,799103	4,999847
0,464000	0,802765	4,999847
0,465000	0,797119	4,999847
0,466000	0,803986	4,999847
0,467000	0,798492	4,999847
0,468000	0,802307	4,296722
0,469000	0,799408	3,781891
0,470000	0,800629	2,413177
0,471000	0,799713	4,157104
0,472000	0,798950	4,999847
0,473000	0,800629	4,999847
0,474000	0,797119	4,999847
0,475000	0,784760	4,999847
0,476000	0,783386	4,999847
0,477000	0,797119	4,999847
0,478000	0,792542	4,999847
0,479000	0,802155	4,438629
0,480000	0,794373	3,277740
0,481000	0,801544	3,441772
0,482000	0,795898	4,823608
0,483000	0,799408	4,999847
0,484000	0,797424	4,999847
0,485000	0,798035	4,999847
0,486000	0,798645	4,999847
0,487000	0,796356	4,999847
0,488000	0,799255	4,743347
0,489000	0,795288	2,987366
0,490000	0,800171	2,905884
0,491000	0,793304	4,483643
0,492000	0,800629	4,999847
0,493000	0,791473	4,999847
0,494000	0,801239	4,999847
0,495000	0,792847	4,999847
0,496000	0,799255	4,999847
0,497000	0,794220	4,999847
0,498000	0,797272	4,999847
0,499000	0,795746	4,653778
0,500000	0,795593	3,806610
0,501000	0,796967	2,852020
0,502000	0,794220	4,999847
0,503000	0,798950	4,999847
0,504000	0,792999	4,999847
0,505000	0,800171	4,999847
0,506000	0,791016	4,999847
0,507000	0,800781	4,879150
0,508000	0,789642	4,715118
0,509000	0,799561	2,525024
0,510000	0,791473	4,051361
0,511000	0,797882	3,635101
0,512000	0,793152	4,999847
0,513000	0,795898	4,999847
0,514000	0,795746	4,999847
0,515000	0,793915	4,999847
0,516000	0,797119	4,999847
0,517000	0,792694	4,999847
0,518000	0,798340	4,999847
0,519000	0,790863	3,250732
0,520000	0,798798	4,010773
0,521000	0,789032	3,757324
0,522000	0,800476	4,837952
0,523000	0,789337	4,999847
0,524000	0,798798	4,999847
0,525000	0,791168	4,999847
0,526000	0,796661	4,999847
0,527000	0,793304	4,999847
0,528000	0,794525	4,633789
0,529000	0,795135	3,908386
0,530000	0,792236	3,695068
0,531000	0,796509	4,283752
0,532000	0,790558	4,999847
0,533000	0,798035	4,999847
0,534000	0,789337	4,999847
0,535000	0,798950	4,999847
0,536000	0,787811	4,999847
0,537000	0,800018	4,999847
0,538000	0,789185	4,779968
0,539000	0,797577	4,098969
0,540000	0,790863	2,783051
0,541000	0,794678	4,214630
0,542000	0,792236	3,505554
0,543000	0,792694	4,342499
0,544000	0,794525	4,999847
0,545000	0,790863	4,999847
0,546000	0,796356	4,999847
0,547000	0,788879	4,999847
0,548000	0,797577	4,999847
0,549000	0,787811	3,461456
0,550000	0,798645	3,094025
0,551000	0,786285	3,986359
0,552000	0,798340	4,999847
0,553000	0,788727	4,999847
0,554000	0,795746	4,999847
0,555000	0,790710	4,999847
0,556000	0,793762	4,999847
0,557000	0,792999	4,999847
0,558000	0,791779	4,999847
0,559000	0,794373	4,118195
0,560000	0,789337	2,808990
0,561000	0,795898	3,804626
0,562000	0,788116	4,676361
0,563000	0,796967	4,999847
0,564000	0,785828	4,999847
0,565000	0,798492	4,999847
0,566000	0,785980	4,999847
0,567000	0,797272	4,940491
0,568000	0,788269	4,999847
0,569000	0,794373	3,012390
0,570000	0,789948	2,816620
0,571000	0,791931	4,999847
0,572000	0,792236	4,183197
0,573000	0,790100	4,999847
0,574000	0,794220	4,999847
0,575000	0,787964	4,999847
0,576000	0,795593	4,999847
0,577000	0,785675	4,999847
0,578000	0,776672	4,999847
0,579000	0,772400	4,999847
0,580000	0,791779	4,102325
0,581000	0,783081	3,775787
0,582000	0,793762	4,178314
0,583000	0,787811	4,999847
0,584000	0,793152	4,999847
0,585000	0,790253	4,999847
0,586000	0,790710	4,999847
0,587000	0,792084	4,999847
0,588000	0,789185	4,999847
0,589000	0,794220	3,121185
0,590000	0,787201	2,705688
0,591000	0,795441	4,999847
0,592000	0,785217	4,999847
0,593000	0,796661	4,999847
0,594000	0,783997	4,999847
0,595000	0,796356	4,999847
0,596000	0,785980	4,999847
0,597000	0,793762	4,999847
0,598000	0,787811	4,999847
0,599000	0,791626	2,957153
0,600000	0,790405	3,699188
0,601000	0,789337	2,875061
0,602000	0,791168	4,902802
0,603000	0,787201	4,999847
0,604000	0,793610	4,999847
0,605000	0,785828	4,999847
0,606000	0,794983	4,999847
0,607000	0,783691	4,999847
0,608000	0,796204	4,999847
0,609000	0,783539	3,373566
0,610000	0,794220	3,657074
0,611000	0,785522	4,452667
0,612000	0,791321	4,999847
0,613000	0,787964	4,999847
0,614000	0,789642	4,999847
0,615000	0,789490	4,999847
0,616000	0,787506	4,999847
0,617000	0,791626	4,999847
0,618000	0,785828	4,858704
0,619000	0,793152	4,740448
0,620000	0,784149	3,073273
0,621000	0,793610	3,484497
0,622000	0,782318	3,848114
0,623000	0,793915	4,999847
0,624000	0,783234	4,999847
0,625000	0,791626	4,999847
0,626000	0,785522	4,999847
0,627000	0,789490	4,999847
0,628000	0,786896	4,449768
0,629000	0,787659	3,009949
0,630000	0,788574	2,698517
0,631000	0,785370	4,967194
0,632000	0,790100	4,999847
0,633000	0,783386	4,999847
0,634000	0,791626	4,999847
0,635000	0,782013	4,999847
0,636000	0,792847	4,999847
0,637000	0,780792	4,999847
0,638000	0,791931	4,999847
0,639000	0,782471	2,881775
0,640000	0,789185	3,763123
0,641000	0,784302	3,184967
0,642000	0,787201	4,185638
0,643000	0,786438	4,999847
0,644000	0,785217	4,999847
0,645000	0,787048	4,999847
0,646000	0,783386	4,999847
0,647000	0,788574	4,999847
0,648000	0,782013	4,999847
0,649000	0,789490	2,925415
0,650000	0,780487	3,073578
0,651000	0,790558	4,999847
0,652000	0,779572	4,821014
0,653000	0,789032	4,999847
0,654000	0,781708	4,999847
0,655000	0,787048	4,999847
0,656000	0,783081	4,999847
0,657000	0,784760	4,999847
0,658000	0,784149	4,687805
0,659000	0,782623	3,217316
0,660000	0,785065	3,093109
0,661000	0,781403	3,100586
0,662000	0,786285	3,237152
0,663000	0,779419	4,999847
0,664000	0,787048	4,999847
0,665000	0,778503	4,999847
0,666000	0,787506	4,999847
0,667000	0,778351	4,999847
0,668000	0,784912	4,160767
0,669000	0,779419	3,094940
0,670000	0,782776	1,986694
0,671000	0,781097	4,129791
0,672000	0,781708	4,999847
0,673000	0,781860	4,999847
0,674000	0,779877	4,999847
0,675000	0,782776	4,999847
0,676000	0,778656	4,999847
0,677000	0,783844	4,999847
0,678000	0,777130	4,880524
0,679000	0,784149	3,625336
0,680000	0,775604	4,285431
0,681000	0,778046	4,024200
0,682000	0,774994	4,999847
0,683000	0,780487	4,999847
0,684000	0,777588	4,999847
0,685000	0,779572	4,999847
0,686000	0,778503	4,999847
0,687000	0,779114	4,999847
0,688000	0,779419	4,266052
0,689000	0,777130	4,123535
0,690000	0,780182	1,417999
0,691000	0,776215	3,903809
0,692000	0,780487	4,999847
0,693000	0,775146	4,999847
0,694000	0,780640	4,999847
0,695000	0,774994	4,999847
0,696000	0,780029	4,999847
0,697000	0,776062	4,999847
0,698000	0,778809	4,532776
0,699000	0,776367	4,999847
0,700000	0,777283	2,806854
0,701000	0,777130	2,783966
0,702000	0,776520	4,999847
0,703000	0,777588	4,999847
0,704000	0,774841	4,999847
0,705000	0,777130	4,999847
0,706000	0,773926	4,999847
0,707000	0,778198	4,999847
0,708000	0,773010	3,811798
0,709000	0,778046	4,314728
0,710000	0,773468	2,772522
0,711000	0,777283	4,251251
0,712000	0,773926	4,999847
0,713000	0,776062	4,999847
0,714000	0,774841	4,999847
0,715000	0,774536	4,999847
0,716000	0,775452	4,999847
0,717000	0,773926	4,999847
0,718000	0,775146	4,999847
0,719000	0,773163	4,204559
0,720000	0,775452	2,451935
0,721000	0,772095	4,844055
0,722000	0,775452	4,999847
0,723000	0,771484	4,999847
0,724000	0,775757	4,999847
0,725000	0,772400	4,999847
0,726000	0,774841	4,999847
0,727000	0,772247	4,999847
0,728000	0,773621	4,397125
0,729000	0,772400	2,877045
0,730000	0,772705	3,542938
0,731000	0,773315	3,872223
0,732000	0,771942	4,999847
0,733000	0,773773	4,999847
0,734000	0,771790	4,999847
0,735000	0,774231	4,999847
0,736000	0,770721	4,999847
0,737000	0,773926	4,999847
0,738000	0,771027	4,612274
0,739000	0,773621	3,560333
0,740000	0,771179	3,215637
0,741000	0,772858	3,551636
0,742000	0,771637	4,494476
0,743000	0,772095	4,999847
0,744000	0,771942	4,999847
0,745000	0,771484	4,999847
0,746000	0,772400	4,999847
0,747000	0,770569	4,999847
0,748000	0,771942	4,999847
0,749000	0,770264	3,698120
0,750000	0,772095	1,489410
0,751000	0,769806	4,477844
0,752000	0,772095	4,999847
0,753000	0,769806	4,999847
0,754000	0,772095	4,999847
0,755000	0,770111	4,999847
0,756000	0,771179	4,999847
0,757000	0,770264	4,999847
0,758000	0,770569	4,952850
0,759000	0,771179	4,048920
0,760000	0,770416	4,343414
0,761000	0,771332	3,186340
0,762000	0,770569	4,423370
0,763000	0,770721	4,999847
0,764000	0,769653	4,999847
0,765000	0,771484	4,999847
0,766000	0,768738	4,999847
0,767000	0,771484	4,951935
0,768000	0,769348	4,851685
0,769000	0,771332	3,381042
0,770000	0,769196	3,038635
0,771000	0,770569	4,999847
0,772000	0,769958	4,931030
0,773000	0,770264	4,999847
0,774000	0,769958	4,999847
0,775000	0,769806	4,999847
0,776000	0,770264	4,999847
0,777000	0,769348	4,999847
0,778000	0,770111	4,999847
0,779000	0,768585	4,244843
0,780000	0,770721	4,069214
0,781000	0,768738	4,099579
0,782000	0,769958	4,711609
0,783000	0,768127	4,999847
0,784000	0,769501	4,999847
0,785000	0,768585	4,999847
0,786000	0,769348	4,999847
0,787000	0,769348	4,955597
0,788000	0,768738	4,879303
0,789000	0,769348	2,970276
0,790000	0,768738	4,111786
0,791000	0,769958	3,440094
0,792000	0,768890	4,999847
0,793000	0,769806	4,999847
0,794000	0,767822	4,999847
0,795000	0,769501	4,999847
0,796000	0,767975	4,999847
0,797000	0,769806	4,999847
0,798000	0,768890	4,999847
0,799000	0,769958	4,762878
0,800000	0,769196	2,966766
0,801000	0,769501	4,999847
0,802000	0,768890	4,518280
0,803000	0,768433	4,999847
0,804000	0,768890	4,999847
0,805000	0,768280	4,999847
0,806000	0,769043	4,999847
0,807000	0,767975	4,999847
0,808000	0,769196	4,999847
0,809000	0,767822	3,453064
0,810000	0,769196	2,819519
0,811000	0,768127	4,341431
0,812000	0,769043	4,999847
0,813000	0,767670	4,999847
0,814000	0,768585	4,999847
0,815000	0,768280	4,999847
0,816000	0,768280	4,999847
0,817000	0,768433	4,999847
0,818000	0,768433	4,980316
0,819000	0,768280	4,165039
0,820000	0,767670	4,976959
0,821000	0,768738	3,598480
0,822000	0,767212	4,893646
0,823000	0,768280	4,999847
0,824000	0,767212	4,999847
0,825000	0,769196	4,999847
0,826000	0,768127	4,999847
0,827000	0,768433	4,999847
0,828000	0,767670	4,355621
0,829000	0,768280	2,561493
0,830000	0,767975	4,041595
0,831000	0,768280	3,450165
0,832000	0,768280	4,982758
0,833000	0,767822	4,999847
0,834000	0,768280	4,999847
0,835000	0,767670	4,999847
0,836000	0,768280	4,999847
0,837000	0,767059	4,999847
0,838000	0,767822	4,999847
0,839000	0,767059	4,781799
0,840000	0,768585	3,564606
0,841000	0,767517	3,187561
0,842000	0,768127	3,740540
0,843000	0,767517	4,999847
0,844000	0,767212	4,999847
0,845000	0,767365	4,999847
0,846000	0,768127	4,999847
0,847000	0,767975	4,999847
0,848000	0,767822	4,935760
0,849000	0,767822	3,763275
0,850000	0,767059	4,282074
0,851000	0,767365	3,687439
0,852000	0,766907	4,705353
0,853000	0,768127	4,999847
0,854000	0,767212	4,999847
0,855000	0,767822	4,999847
0,856000	0,767365	4,999847
0,857000	0,767670	4,999847
0,858000	0,767517	4,999847
0,859000	0,767059	3,365936
0,860000	0,767517	2,493591
0,861000	0,767212	4,039764
0,862000	0,767670	4,157257
0,863000	0,768585	4,999847
0,864000	0,768585	4,999847
0,865000	0,767975	4,999847
0,866000	0,768280	4,999847
0,867000	0,767975	4,999847
0,868000	0,767975	4,427185
0,869000	0,768585	3,422089
0,870000	0,768433	3,581848
0,871000	0,768127	4,999847
0,872000	0,767822	4,999847
0,873000	0,768280	4,999847
0,874000	0,767975	4,999847
0,875000	0,768280	4,999847
0,876000	0,768433	4,999847
0,877000	0,768433	4,999847
0,878000	0,768890	4,999847
0,879000	0,768890	4,118042
0,880000	0,768433	3,965454
0,881000	0,768585	3,956604
0,882000	0,769196	3,729553
0,883000	0,768890	4,999847
0,884000	0,768585	4,999847
0,885000	0,767517	4,999847
0,886000	0,768127	4,999847
0,887000	0,780487	4,999847
0,888000	0,794983	4,999847
0,889000	0,798340	3,047943
0,890000	0,803680	3,395233
0,891000	0,800476	3,975677
0,892000	0,805359	4,999847
0,893000	0,800171	4,999847
0,894000	0,806274	4,999847
0,895000	0,800018	4,999847
0,896000	0,804749	4,999847
0,897000	0,801086	4,999847
0,898000	0,803223	4,399261
0,899000	0,801544	3,797302
0,900000	0,802002	4,115753
0,901000	0,802155	3,636017
0,902000	0,800476	4,460602
0,903000	0,802917	4,999847
0,904000	0,798950	4,999847
0,905000	0,803528	4,999847
0,906000	0,797882	4,999847
0,907000	0,803833	4,999847
0,908000	0,796661	4,899445
0,909000	0,803986	3,232422
0,910000	0,797272	1,298218
0,911000	0,802307	4,684448
0,912000	0,798187	4,999847
0,913000	0,801086	4,999847
0,914000	0,799103	4,999847
0,915000	0,798645	4,999847
0,916000	0,800018	4,999847
0,917000	0,796967	4,999847
0,918000	0,800934	4,999847
0,919000	0,795746	3,533478
0,920000	0,801697	3,427429
0,921000	0,794067	4,626923
0,922000	0,802002	4,516144
0,923000	0,792999	4,999847
0,924000	0,801697	4,999847
0,925000	0,794678	4,999847
0,926000	0,799713	4,999847
0,927000	0,795898	4,999847
0,928000	0,797577	4,513702
0,929000	0,797729	3,334656
0,930000	0,796356	2,745972
0,931000	0,799255	4,898682
0,932000	0,794830	4,999847
0,933000	0,799866	4,999847
0,934000	0,793152	4,999847
0,935000	0,800934	4,999847
0,936000	0,791473	4,999847
0,937000	0,802002	4,999847
0,938000	0,791931	4,905090
0,939000	0,799866	3,786163
0,940000	0,793152	3,554687
0,941000	0,797577	3,552246
0,942000	0,795288	4,443512
0,943000	0,796051	4,999847
0,944000	0,796814	4,999847
0,945000	0,794067	4,999847
0,946000	0,798187	4,999847
0,947000	0,792236	4,999847
0,948000	0,799255	4,636078
0,949000	0,790863	3,936310
0,950000	0,799866	3,613739
0,951000	0,789490	4,099731
0,952000	0,800476	4,900055
0,953000	0,790405	4,999847
0,954000	0,798492	4,999847
0,955000	0,792542	4,999847
0,956000	0,796661	4,999847
0,957000	0,794373	4,999847
0,958000	0,794067	4,999847
0,959000	0,795441	3,327942
0,960000	0,792542	3,757935
0,961000	0,797119	3,163757
0,962000	0,790253	3,283539
0,963000	0,798492	4,999847
0,964000	0,789032	4,999847
0,965000	0,800018	4,999847
0,966000	0,788116	4,999847
0,967000	0,799103	4,999847
0,968000	0,790100	4,552765
0,969000	0,796814	4,036713
0,970000	0,791473	1,529541
0,971000	0,794220	4,300842
0,972000	0,793762	4,999847
0,973000	0,792694	4,999847
0,974000	0,795441	4,999847
0,975000	0,790405	4,999847
0,976000	0,796661	4,999847
0,977000	0,789185	4,999847
0,978000	0,798035	4,601288
0,979000	0,787506	4,401550
0,980000	0,799561	3,775330
0,981000	0,787659	3,902435
0,982000	0,797577	4,091949
0,983000	0,789185	4,999847
0,984000	0,794983	4,999847
0,985000	0,791168	4,999847
0,986000	0,792694	4,999847
0,987000	0,777740	4,999847
0,988000	0,775146	4,999847
0,989000	0,788116	3,658600
0,990000	0,786133	3,552094
0,991000	0,794983	4,999847
0,992000	0,786743	4,999847
0,993000	0,797424	4,999847
0,994000	0,785522	4,999847
0,995000	0,797882	4,999847
0,996000	0,786896	4,999847
0,997000	0,796204	4,999847
0,998000	0,789185	4,699097
0,999000	0,793762	3,800964

