LabVIEW Measurement	
Writer_Version	2
Reader_Version	2
Separator	Tab
Decimal_Separator	,
Multi_Headings	Yes
X_Columns	One
Time_Pref	Absolute
Operator	d.nicolai
Date	2023/11/09
Time	15:58:22,5385127999997216582
***End_of_Header***	
	
Channels	2		
Samples	1000	1000	
Date	2023/11/09	2023/11/09	
Time	15:58:29,9285167999995197165	15:58:29,9285167999995197165	
Y_Unit_Label	Volts	Volts	
X_Dimension	Time	Time	
X0	0,0000000000000000E+0	0,0000000000000000E+0	
Delta_X	0,001000	0,001000	
***End_of_Header***			
X_Value	powebox	triggerbox	Comment
0,000000	0,771179	0,969086
0,001000	0,769348	4,023285
0,002000	0,770111	4,032745
0,003000	0,769653	4,978943
0,004000	0,769653	4,999847
0,005000	0,769958	4,999847
0,006000	0,769501	4,999847
0,007000	0,769653	4,766388
0,008000	0,769043	4,820099
0,009000	0,770264	3,293152
0,010000	0,768585	2,885742
0,011000	0,769806	4,454498
0,012000	0,768280	4,999847
0,013000	0,769348	4,999847
0,014000	0,768280	4,999847
0,015000	0,768280	4,999847
0,016000	0,768738	4,999847
0,017000	0,769348	4,999847
0,018000	0,769043	4,778442
0,019000	0,769196	3,502655
0,020000	0,768738	3,779449
0,021000	0,768585	3,611450
0,022000	0,769196	4,251862
0,023000	0,768585	4,844818
0,024000	0,769348	4,999847
0,025000	0,767975	4,999847
0,026000	0,769501	4,999847
0,027000	0,768585	4,999847
0,028000	0,769348	4,237823
0,029000	0,769196	2,918854
0,030000	0,769043	2,980347
0,031000	0,768433	4,795990
0,032000	0,769043	4,824524
0,033000	0,768890	4,999847
0,034000	0,768738	4,999847
0,035000	0,768890	4,999847
0,036000	0,768433	4,999847
0,037000	0,768738	4,999847
0,038000	0,768433	4,803009
0,039000	0,769043	3,774261
0,040000	0,767822	2,393036
0,041000	0,769196	4,999847
0,042000	0,768127	3,949585
0,043000	0,769348	4,999847
0,044000	0,768433	4,999847
0,045000	0,768890	4,999847
0,046000	0,768433	4,999847
0,047000	0,769043	4,999847
0,048000	0,767975	4,346313
0,049000	0,767975	2,890778
0,050000	0,768585	3,499908
0,051000	0,768433	4,517059
0,052000	0,768890	4,999847
0,053000	0,767365	4,999847
0,054000	0,768433	4,999847
0,055000	0,767975	4,999847
0,056000	0,769196	4,999847
0,057000	0,768433	4,999847
0,058000	0,769196	4,643097
0,059000	0,768280	3,635559
0,060000	0,768280	2,005920
0,061000	0,768280	4,999847
0,062000	0,768127	3,586731
0,063000	0,768738	4,999847
0,064000	0,768280	4,999847
0,065000	0,768738	4,999847
0,066000	0,767975	4,999847
0,067000	0,768890	4,999847
0,068000	0,767975	4,069366
0,069000	0,769196	3,072510
0,070000	0,767822	2,589264
0,071000	0,768890	4,999847
0,072000	0,767822	4,999847
0,073000	0,768738	4,999847
0,074000	0,767975	4,999847
0,075000	0,768890	4,999847
0,076000	0,769196	4,999847
0,077000	0,769501	4,999847
0,078000	0,769043	4,999847
0,079000	0,768738	3,694763
0,080000	0,769653	3,686371
0,081000	0,768890	4,111481
0,082000	0,769043	3,835297
0,083000	0,768890	4,999847
0,084000	0,768890	4,999847
0,085000	0,768890	4,999847
0,086000	0,769348	4,999847
0,087000	0,769348	4,999847
0,088000	0,769348	4,999847
0,089000	0,768890	3,297729
0,090000	0,769043	2,659607
0,091000	0,769501	4,919434
0,092000	0,769348	4,999847
0,093000	0,769653	4,999847
0,094000	0,769501	4,999847
0,095000	0,769653	4,999847
0,096000	0,769196	4,999847
0,097000	0,769196	4,999847
0,098000	0,769196	4,606476
0,099000	0,769196	3,730774
0,100000	0,780029	3,193207
0,101000	0,794067	3,780365
0,102000	0,798492	3,992004
0,103000	0,803680	4,999847
0,104000	0,801392	4,999847
0,105000	0,803070	4,999847
0,106000	0,800323	4,999847
0,107000	0,805817	4,999847
0,108000	0,799561	3,942871
0,109000	0,806122	3,127441
0,110000	0,799713	3,562317
0,111000	0,804749	4,189453
0,112000	0,801239	4,999847
0,113000	0,802917	4,999847
0,114000	0,801697	4,999847
0,115000	0,801544	4,999847
0,116000	0,787964	4,999847
0,117000	0,793304	4,999847
0,118000	0,799866	4,999847
0,119000	0,797272	3,280640
0,120000	0,802612	3,946838
0,121000	0,796661	3,349304
0,122000	0,803680	4,096985
0,123000	0,795746	4,999847
0,124000	0,803680	4,999847
0,125000	0,796356	4,999847
0,126000	0,801544	4,999847
0,127000	0,798035	4,999847
0,128000	0,799866	4,999847
0,129000	0,798798	3,282623
0,130000	0,798187	3,319702
0,131000	0,799866	4,999847
0,132000	0,796051	4,907532
0,133000	0,800476	4,999847
0,134000	0,794983	4,999847
0,135000	0,801697	4,999847
0,136000	0,794220	4,999847
0,137000	0,802307	4,999847
0,138000	0,793304	4,999847
0,139000	0,801392	3,637695
0,140000	0,794830	4,279327
0,141000	0,799713	2,976074
0,142000	0,796051	3,385010
0,143000	0,797577	4,999847
0,144000	0,796967	4,999847
0,145000	0,796051	4,999847
0,146000	0,798035	4,999847
0,147000	0,793915	4,999847
0,148000	0,799866	4,120026
0,149000	0,792847	3,563080
0,150000	0,800934	2,786407
0,151000	0,791626	4,578247
0,152000	0,801392	4,999847
0,153000	0,791321	4,999847
0,154000	0,799713	4,999847
0,155000	0,793762	4,999847
0,156000	0,797882	4,999847
0,157000	0,795135	4,999847
0,158000	0,795746	4,413757
0,159000	0,796814	4,018097
0,160000	0,793915	3,554230
0,161000	0,797577	3,842773
0,162000	0,792389	4,160461
0,163000	0,798950	4,999847
0,164000	0,790863	4,999847
0,165000	0,800018	4,999847
0,166000	0,789337	4,999847
0,167000	0,800171	4,999847
0,168000	0,790405	3,557739
0,169000	0,798340	3,057709
0,170000	0,792694	3,110046
0,171000	0,795898	3,661804
0,172000	0,794525	4,999847
0,173000	0,793610	4,999847
0,174000	0,795593	4,999847
0,175000	0,790863	4,999847
0,176000	0,796356	4,999847
0,177000	0,790100	4,999847
0,178000	0,798645	4,999847
0,179000	0,788727	4,482422
0,180000	0,799561	3,659210
0,181000	0,787811	3,422699
0,182000	0,798492	4,263916
0,183000	0,790100	4,999847
0,184000	0,796509	4,999847
0,185000	0,792084	4,999847
0,186000	0,794678	4,999847
0,187000	0,793762	4,999847
0,188000	0,792542	3,785553
0,189000	0,795441	3,871918
0,190000	0,790710	2,908630
0,191000	0,796967	4,490662
0,192000	0,788727	4,999847
0,193000	0,797882	4,999847
0,194000	0,787811	4,999847
0,195000	0,799103	4,999847
0,196000	0,787201	4,999847
0,197000	0,797272	4,999847
0,198000	0,789642	4,550171
0,199000	0,795288	4,105072
0,200000	0,792389	2,431793
0,201000	0,791779	4,129181
0,202000	0,793304	3,828430
0,203000	0,790863	4,999847
0,204000	0,795441	4,999847
0,205000	0,789185	4,999847
0,206000	0,796204	4,999847
0,207000	0,787506	4,999847
0,208000	0,798035	3,953705
0,209000	0,786133	3,634949
0,210000	0,798645	2,688446
0,211000	0,787659	4,346771
0,212000	0,795746	4,999847
0,213000	0,789490	4,999847
0,214000	0,793304	4,999847
0,215000	0,791321	4,999847
0,216000	0,791473	4,999847
0,217000	0,793457	4,999847
0,218000	0,787964	4,999847
0,219000	0,789490	4,627686
0,220000	0,785065	3,713684
0,221000	0,794830	3,072052
0,222000	0,785980	4,972534
0,223000	0,797577	4,999847
0,224000	0,784912	4,999847
0,225000	0,796661	4,999847
0,226000	0,787354	4,999847
0,227000	0,794830	4,999847
0,228000	0,789642	4,003601
0,229000	0,791931	3,320007
0,230000	0,791321	2,696228
0,231000	0,790253	4,065247
0,232000	0,793610	4,999847
0,233000	0,788269	4,999847
0,234000	0,794983	4,999847
0,235000	0,786743	4,999847
0,236000	0,796051	4,999847
0,237000	0,784607	4,999847
0,238000	0,797424	4,880219
0,239000	0,785065	3,834534
0,240000	0,795898	4,425201
0,241000	0,787964	3,111420
0,242000	0,792847	3,765717
0,243000	0,787811	4,999847
0,244000	0,789642	4,999847
0,245000	0,790863	4,999847
0,246000	0,788574	4,999847
0,247000	0,793152	4,999847
0,248000	0,787201	4,285431
0,249000	0,794525	3,341064
0,250000	0,785370	4,343109
0,251000	0,796509	3,361664
0,252000	0,783691	4,999847
0,253000	0,796509	4,999847
0,254000	0,785522	4,999847
0,255000	0,793762	4,999847
0,256000	0,787506	4,999847
0,257000	0,791931	4,999847
0,258000	0,789642	4,999847
0,259000	0,789642	3,976898
0,260000	0,790710	2,608032
0,261000	0,787506	4,288330
0,262000	0,792236	3,103485
0,263000	0,785522	4,999847
0,264000	0,793457	4,999847
0,265000	0,783844	4,999847
0,266000	0,794678	4,999847
0,267000	0,782928	4,999847
0,268000	0,794525	4,988251
0,269000	0,785370	3,242493
0,270000	0,791168	3,375854
0,271000	0,786896	4,398956
0,272000	0,790100	4,999847
0,273000	0,788879	4,999847
0,274000	0,787811	4,999847
0,275000	0,790100	4,999847
0,276000	0,785980	4,999847
0,277000	0,791473	4,999847
0,278000	0,784302	4,726257
0,279000	0,792542	3,871155
0,280000	0,782166	3,887787
0,281000	0,793457	3,185120
0,282000	0,782166	4,222260
0,283000	0,792694	4,999847
0,284000	0,784760	4,999847
0,285000	0,789795	4,999847
0,286000	0,786133	4,999847
0,287000	0,787659	4,999847
0,288000	0,787811	4,187164
0,289000	0,785522	3,134460
0,290000	0,789490	2,762299
0,291000	0,783539	4,595184
0,292000	0,790405	4,593964
0,293000	0,782623	4,999847
0,294000	0,791473	4,999847
0,295000	0,780945	4,999847
0,296000	0,792389	4,999847
0,297000	0,781250	4,999847
0,298000	0,789642	4,999847
0,299000	0,783386	3,880615
0,300000	0,786896	2,888947
0,301000	0,784912	4,262390
0,302000	0,785370	3,946686
0,303000	0,786743	4,999847
0,304000	0,783691	4,999847
0,305000	0,787811	4,999847
0,306000	0,782013	4,999847
0,307000	0,788574	4,999847
0,308000	0,781097	4,032135
0,309000	0,789337	2,601013
0,310000	0,779419	4,045868
0,311000	0,787964	4,452362
0,312000	0,780334	4,999847
0,313000	0,786591	4,999847
0,314000	0,782013	4,999847
0,315000	0,784149	4,999847
0,316000	0,783691	4,999847
0,317000	0,782013	4,999847
0,318000	0,784149	4,999847
0,319000	0,780945	4,202423
0,320000	0,784760	3,414459
0,321000	0,775909	4,290009
0,322000	0,783081	3,882294
0,323000	0,776520	4,999847
0,324000	0,785065	4,999847
0,325000	0,777435	4,999847
0,326000	0,784607	4,999847
0,327000	0,778503	4,999847
0,328000	0,782471	4,521179
0,329000	0,779877	3,450012
0,330000	0,780792	3,110657
0,331000	0,780792	4,406891
0,332000	0,780029	4,537048
0,333000	0,781403	4,999847
0,334000	0,777435	4,999847
0,335000	0,782166	4,999847
0,336000	0,776672	4,999847
0,337000	0,782471	4,999847
0,338000	0,775757	4,635468
0,339000	0,783234	4,377289
0,340000	0,776215	3,333282
0,341000	0,781403	4,740295
0,342000	0,777740	4,302521
0,343000	0,779114	4,999847
0,344000	0,778351	4,999847
0,345000	0,778046	4,999847
0,346000	0,778809	4,999847
0,347000	0,777283	4,999847
0,348000	0,779419	3,657990
0,349000	0,775757	2,940826
0,350000	0,779419	2,355347
0,351000	0,774536	4,556732
0,352000	0,779419	4,999847
0,353000	0,774536	4,999847
0,354000	0,779724	4,999847
0,355000	0,775146	4,999847
0,356000	0,778656	4,999847
0,357000	0,775757	4,999847
0,358000	0,777130	4,212341
0,359000	0,776062	3,933411
0,360000	0,775604	3,749542
0,361000	0,776672	2,531128
0,362000	0,774841	4,145813
0,363000	0,776520	4,999847
0,364000	0,773926	4,999847
0,365000	0,776672	4,999847
0,366000	0,773163	4,999847
0,367000	0,777283	4,999847
0,368000	0,773010	4,954071
0,369000	0,776825	3,730469
0,370000	0,773773	3,407745
0,371000	0,775909	4,832153
0,372000	0,774384	4,999847
0,373000	0,775146	4,999847
0,374000	0,774536	4,999847
0,375000	0,774078	4,999847
0,376000	0,774841	4,999847
0,377000	0,772858	4,999847
0,378000	0,775299	4,403992
0,379000	0,772552	3,919678
0,380000	0,776215	3,847046
0,381000	0,771942	3,599701
0,382000	0,775909	4,976654
0,383000	0,772095	4,999847
0,384000	0,774689	4,999847
0,385000	0,771942	4,999847
0,386000	0,773621	4,999847
0,387000	0,772858	4,999847
0,388000	0,772705	3,953247
0,389000	0,773163	3,115692
0,390000	0,772552	2,784729
0,391000	0,773926	4,177094
0,392000	0,771637	4,790497
0,393000	0,774078	4,999847
0,394000	0,771637	4,999847
0,395000	0,774078	4,999847
0,396000	0,771179	4,999847
0,397000	0,774536	4,999847
0,398000	0,771637	4,646454
0,399000	0,773315	4,217682
0,400000	0,771790	3,859253
0,401000	0,772552	3,636017
0,402000	0,772247	4,023285
0,403000	0,771942	4,999847
0,404000	0,772247	4,999847
0,405000	0,771027	4,999847
0,406000	0,772247	4,999847
0,407000	0,770569	4,999847
0,408000	0,772552	4,660950
0,409000	0,770416	3,974304
0,410000	0,773163	2,446442
0,411000	0,769958	4,999847
0,412000	0,772400	4,999847
0,413000	0,770874	4,999847
0,414000	0,772247	4,999847
0,415000	0,770874	4,999847
0,416000	0,771484	4,999847
0,417000	0,771332	4,999847
0,418000	0,770721	4,999847
0,419000	0,771484	4,033203
0,420000	0,770569	3,842926
0,421000	0,771942	2,870331
0,422000	0,770569	4,311829
0,423000	0,769958	4,999847
0,424000	0,768433	4,999847
0,425000	0,770874	4,999847
0,426000	0,768890	4,999847
0,427000	0,771332	4,999847
0,428000	0,769348	4,794159
0,429000	0,771179	4,095154
0,430000	0,770111	3,264618
0,431000	0,770264	3,991241
0,432000	0,770416	4,999847
0,433000	0,769958	4,999847
0,434000	0,770721	4,999847
0,435000	0,769348	4,999847
0,436000	0,770416	4,999847
0,437000	0,768585	4,999847
0,438000	0,770264	4,999847
0,439000	0,768585	4,564819
0,440000	0,770874	3,894958
0,441000	0,769043	3,638458
0,442000	0,770721	4,139709
0,443000	0,769806	4,869537
0,444000	0,770111	4,999847
0,445000	0,769806	4,999847
0,446000	0,769806	4,999847
0,447000	0,769348	4,999847
0,448000	0,769196	4,999847
0,449000	0,769653	2,874298
0,450000	0,769348	2,940521
0,451000	0,769653	4,502716
0,452000	0,768890	4,826965
0,453000	0,770264	4,999847
0,454000	0,768433	4,999847
0,455000	0,770416	4,999847
0,456000	0,769043	4,999847
0,457000	0,769653	4,999847
0,458000	0,769196	4,999847
0,459000	0,769806	4,210510
0,460000	0,769348	3,899536
0,461000	0,769348	3,297729
0,462000	0,769348	4,606171
0,463000	0,768585	4,718933
0,464000	0,769348	4,999847
0,465000	0,768433	4,999847
0,466000	0,769196	4,999847
0,467000	0,768433	4,999847
0,468000	0,769653	4,811401
0,469000	0,767975	2,720947
0,470000	0,769196	2,780914
0,471000	0,768127	4,577942
0,472000	0,769196	4,640808
0,473000	0,768280	4,999847
0,474000	0,769196	4,999847
0,475000	0,768738	4,999847
0,476000	0,768280	4,999847
0,477000	0,768890	4,999847
0,478000	0,768280	4,999847
0,479000	0,769196	3,943481
0,480000	0,768433	3,814087
0,481000	0,769348	4,364014
0,482000	0,768127	4,165802
0,483000	0,769348	4,999847
0,484000	0,768280	4,999847
0,485000	0,769043	4,999847
0,486000	0,768433	4,999847
0,487000	0,769196	4,999847
0,488000	0,768890	4,999847
0,489000	0,769043	3,072205
0,490000	0,768890	2,582245
0,491000	0,768738	4,999847
0,492000	0,769043	4,999847
0,493000	0,768890	4,999847
0,494000	0,768585	4,999847
0,495000	0,768280	4,999847
0,496000	0,768890	4,999847
0,497000	0,768280	4,999847
0,498000	0,768890	4,999847
0,499000	0,768280	3,714905
0,500000	0,768738	3,667145
0,501000	0,767975	4,001617
0,502000	0,768738	4,999847
0,503000	0,768433	4,999847
0,504000	0,768280	4,999847
0,505000	0,768738	4,999847
0,506000	0,768127	4,999847
0,507000	0,769196	4,999847
0,508000	0,768585	4,130402
0,509000	0,768890	2,555695
0,510000	0,767975	3,657379
0,511000	0,768585	3,648071
0,512000	0,768280	4,999847
0,513000	0,769043	4,999847
0,514000	0,768890	4,999847
0,515000	0,769196	4,999847
0,516000	0,769348	4,999847
0,517000	0,769501	4,999847
0,518000	0,769043	4,999847
0,519000	0,769043	4,532166
0,520000	0,769196	3,987274
0,521000	0,769043	4,419556
0,522000	0,768890	4,009399
0,523000	0,769501	4,999847
0,524000	0,769196	4,999847
0,525000	0,769501	4,999847
0,526000	0,768127	4,999847
0,527000	0,768738	4,999847
0,528000	0,769043	4,337463
0,529000	0,769348	2,742920
0,530000	0,769501	3,873596
0,531000	0,769653	3,130341
0,532000	0,769653	4,999847
0,533000	0,769043	4,999847
0,534000	0,769653	4,999847
0,535000	0,769196	4,999847
0,536000	0,769653	4,999847
0,537000	0,773773	4,999847
0,538000	0,787659	4,999847
0,539000	0,800171	3,868408
0,540000	0,800934	2,494049
0,541000	0,804291	3,724213
0,542000	0,801849	4,180145
0,543000	0,803528	4,999847
0,544000	0,803986	4,999847
0,545000	0,802612	4,999847
0,546000	0,804596	4,999847
0,547000	0,802155	4,999847
0,548000	0,805511	4,999847
0,549000	0,800629	2,952728
0,550000	0,805664	2,640686
0,551000	0,799408	4,714508
0,552000	0,806580	4,999847
0,553000	0,799561	4,999847
0,554000	0,804291	4,999847
0,555000	0,800476	4,999847
0,556000	0,802765	4,999847
0,557000	0,801086	4,999847
0,558000	0,801239	4,999847
0,559000	0,802307	4,094543
0,560000	0,799255	4,061432
0,561000	0,802612	3,166046
0,562000	0,797882	4,817657
0,563000	0,803833	4,999847
0,564000	0,796967	4,999847
0,565000	0,803986	4,999847
0,566000	0,795441	4,999847
0,567000	0,803986	4,999847
0,568000	0,796814	4,999847
0,569000	0,802307	3,003693
0,570000	0,797882	4,288483
0,571000	0,800476	2,836304
0,572000	0,799713	4,999847
0,573000	0,799103	4,999847
0,574000	0,800629	4,999847
0,575000	0,796814	4,999847
0,576000	0,801544	4,999847
0,577000	0,795135	4,999847
0,578000	0,802307	4,679871
0,579000	0,794067	3,382416
0,580000	0,803070	4,196014
0,581000	0,793610	3,957672
0,582000	0,802002	4,844818
0,583000	0,795593	4,999847
0,584000	0,800171	4,999847
0,585000	0,796661	4,999847
0,586000	0,797577	4,999847
0,587000	0,797729	4,999847
0,588000	0,796356	4,517365
0,589000	0,798645	3,665619
0,590000	0,792999	3,209076
0,591000	0,800018	2,935486
0,592000	0,792389	4,999847
0,593000	0,801544	4,999847
0,594000	0,791779	4,999847
0,595000	0,802765	4,999847
0,596000	0,792542	4,999847
0,597000	0,800781	4,999847
0,598000	0,794067	4,812469
0,599000	0,798035	4,093781
0,600000	0,796051	3,445740
0,601000	0,796051	3,625183
0,602000	0,797272	4,190979
0,603000	0,794220	4,999847
0,604000	0,798645	4,999847
0,605000	0,792389	4,999847
0,606000	0,799866	4,999847
0,607000	0,790558	4,999847
0,608000	0,800781	4,553070
0,609000	0,789337	3,675995
0,610000	0,801239	3,936615
0,611000	0,791473	4,789734
0,612000	0,797729	4,795380
0,613000	0,792847	4,999847
0,614000	0,796509	4,999847
0,615000	0,795593	4,999847
0,616000	0,794220	4,999847
0,617000	0,796356	4,999847
0,618000	0,792542	4,271393
0,619000	0,798035	4,259644
0,620000	0,790863	2,739105
0,621000	0,798950	3,873596
0,622000	0,789185	4,092712
0,623000	0,800171	4,999847
0,624000	0,788879	4,999847
0,625000	0,799255	4,999847
0,626000	0,791016	4,999847
0,627000	0,796661	4,999847
0,628000	0,782013	4,582672
0,629000	0,778961	3,711853
0,630000	0,787201	4,642944
0,631000	0,789185	4,393005
0,632000	0,794220	4,761658
0,633000	0,789948	4,999847
0,634000	0,796814	4,999847
0,635000	0,789032	4,999847
0,636000	0,799103	4,999847
0,637000	0,787811	4,999847
0,638000	0,800018	4,626923
0,639000	0,788422	4,072723
0,640000	0,798187	3,673401
0,641000	0,790863	3,285980
0,642000	0,795288	4,867249
0,643000	0,792389	4,999847
0,644000	0,793610	4,999847
0,645000	0,794678	4,999847
0,646000	0,791473	4,999847
0,647000	0,796051	4,999847
0,648000	0,789490	4,178619
0,649000	0,797882	3,368225
0,650000	0,787964	2,962952
0,651000	0,798492	3,014679
0,652000	0,786133	4,999847
0,653000	0,799255	4,999847
0,654000	0,788269	4,999847
0,655000	0,796509	4,999847
0,656000	0,790558	4,999847
0,657000	0,794373	4,999847
0,658000	0,792542	4,350891
0,659000	0,791931	4,220276
0,660000	0,793610	4,999847
0,661000	0,789642	3,631592
0,662000	0,795441	3,694305
0,663000	0,787964	4,999847
0,664000	0,797272	4,999847
0,665000	0,786591	4,999847
0,666000	0,798340	4,999847
0,667000	0,785370	4,999847
0,668000	0,796967	4,526215
0,669000	0,787811	3,121948
0,670000	0,794678	3,128662
0,671000	0,790558	2,861633
0,672000	0,792694	4,999847
0,673000	0,792389	4,999847
0,674000	0,790405	4,999847
0,675000	0,793762	4,999847
0,676000	0,788422	4,999847
0,677000	0,795593	4,999847
0,678000	0,787048	4,999847
0,679000	0,796967	4,564819
0,680000	0,785065	4,435730
0,681000	0,797577	4,187012
0,682000	0,785828	4,630432
0,683000	0,795288	4,999847
0,684000	0,787811	4,999847
0,685000	0,792999	4,999847
0,686000	0,790253	4,999847
0,687000	0,790710	4,999847
0,688000	0,791779	4,086761
0,689000	0,788879	3,685455
0,690000	0,793610	4,092560
0,691000	0,787048	3,948364
0,692000	0,794983	4,999847
0,693000	0,785675	4,999847
0,694000	0,796051	4,999847
0,695000	0,783691	4,999847
0,696000	0,796204	4,999847
0,697000	0,785675	4,999847
0,698000	0,793762	4,999847
0,699000	0,787201	4,440155
0,700000	0,791626	3,450623
0,701000	0,789795	4,843292
0,702000	0,789948	3,094177
0,703000	0,791779	4,999847
0,704000	0,787811	4,999847
0,705000	0,792847	4,999847
0,706000	0,785980	4,999847
0,707000	0,794525	4,999847
0,708000	0,784302	4,526215
0,709000	0,796051	3,286285
0,710000	0,783234	2,137756
0,711000	0,794830	4,150238
0,712000	0,785065	4,999847
0,713000	0,792084	4,999847
0,714000	0,787201	4,999847
0,715000	0,789642	4,999847
0,716000	0,788879	4,999847
0,717000	0,787811	4,999847
0,718000	0,790405	4,499664
0,719000	0,785370	4,175110
0,720000	0,791779	3,960571
0,721000	0,784149	4,235382
0,722000	0,793152	3,442993
0,723000	0,782166	4,521332
0,724000	0,793762	4,999847
0,725000	0,782623	4,999847
0,726000	0,791473	4,999847
0,727000	0,784302	4,999847
0,728000	0,789948	4,718323
0,729000	0,786591	2,912903
0,730000	0,786743	1,399078
0,731000	0,786743	4,543152
0,732000	0,784760	4,810791
0,733000	0,788879	4,999847
0,734000	0,783539	4,999847
0,735000	0,790100	4,999847
0,736000	0,782166	4,999847
0,737000	0,790558	4,999847
0,738000	0,780792	4,820251
0,739000	0,791016	4,324799
0,740000	0,781708	2,726288
0,741000	0,789032	3,764954
0,742000	0,782776	4,726868
0,743000	0,786743	4,999847
0,744000	0,785065	4,999847
0,745000	0,784760	4,999847
0,746000	0,786133	4,999847
0,747000	0,783081	4,999847
0,748000	0,787201	4,488068
0,749000	0,781403	3,224182
0,750000	0,787506	4,262238
0,751000	0,780182	3,082886
0,752000	0,788116	4,999847
0,753000	0,778961	4,999847
0,754000	0,787201	4,999847
0,755000	0,780640	4,999847
0,756000	0,785828	4,999847
0,757000	0,782013	4,999847
0,758000	0,783844	4,781647
0,759000	0,782471	4,180603
0,760000	0,781708	3,565369
0,761000	0,783234	4,097900
0,762000	0,780182	4,499359
0,763000	0,784760	4,752808
0,764000	0,778809	4,999847
0,765000	0,784760	4,999847
0,766000	0,777740	4,999847
0,767000	0,785217	4,999847
0,768000	0,777435	4,999847
0,769000	0,783539	2,602081
0,770000	0,778503	3,555450
0,771000	0,782166	4,999847
0,772000	0,779877	4,999847
0,773000	0,780334	4,999847
0,774000	0,780334	4,999847
0,775000	0,778809	4,999847
0,776000	0,781860	4,999847
0,777000	0,777740	4,999847
0,778000	0,781097	4,999847
0,779000	0,776367	3,980865
0,780000	0,782013	4,525146
0,781000	0,775909	3,777924
0,782000	0,782013	4,721680
0,783000	0,776062	4,999847
0,784000	0,780792	4,999847
0,785000	0,777283	4,999847
0,786000	0,779266	4,999847
0,787000	0,777893	4,999847
0,788000	0,777893	4,682770
0,789000	0,778656	3,744049
0,790000	0,776825	3,638458
0,791000	0,778656	3,097076
0,792000	0,775604	4,996490
0,793000	0,779572	4,999847
0,794000	0,774994	4,999847
0,795000	0,779114	4,999847
0,796000	0,773926	4,999847
0,797000	0,778809	4,999847
0,798000	0,774841	4,999847
0,799000	0,777740	4,441071
0,800000	0,775452	4,999847
0,801000	0,776062	3,591766
0,802000	0,776062	3,974152
0,803000	0,775909	4,999847
0,804000	0,776215	4,999847
0,805000	0,774384	4,999847
0,806000	0,776825	4,999847
0,807000	0,773926	4,999847
0,808000	0,776825	3,921967
0,809000	0,773010	3,103180
0,810000	0,777283	2,158203
0,811000	0,773926	4,102020
0,812000	0,777283	4,456177
0,813000	0,774384	4,999847
0,814000	0,775909	4,999847
0,815000	0,774384	4,999847
0,816000	0,774384	4,999847
0,817000	0,774384	4,999847
0,818000	0,773926	4,690857
0,819000	0,774536	4,056091
0,820000	0,773163	1,381683
0,821000	0,775299	4,255371
0,822000	0,772400	3,973236
0,823000	0,774994	4,399109
0,824000	0,771942	4,999847
0,825000	0,775757	4,999847
0,826000	0,772095	4,999847
0,827000	0,774384	4,999847
0,828000	0,773010	4,226532
0,829000	0,774231	3,289795
0,830000	0,773315	3,766174
0,831000	0,773315	3,542328
0,832000	0,773468	4,872742
0,833000	0,770264	4,999847
0,834000	0,772400	4,999847
0,835000	0,771179	4,999847
0,836000	0,773773	4,999847
0,837000	0,770569	4,999847
0,838000	0,773773	4,545441
0,839000	0,770874	4,277649
0,840000	0,773468	3,798676
0,841000	0,771179	3,394623
0,842000	0,773010	4,099731
0,843000	0,771790	4,999847
0,844000	0,772400	4,999847
0,845000	0,771942	4,999847
0,846000	0,772247	4,999847
0,847000	0,772400	4,999847
0,848000	0,771027	4,072266
0,849000	0,772095	2,510529
0,850000	0,770569	2,673187
0,851000	0,772247	4,286652
0,852000	0,770569	4,692688
0,853000	0,773163	4,999847
0,854000	0,771027	4,999847
0,855000	0,773163	4,999847
0,856000	0,771179	4,999847
0,857000	0,771637	4,999847
0,858000	0,771027	4,806824
0,859000	0,771637	4,062958
0,860000	0,771027	3,614960
0,861000	0,770416	4,478607
0,862000	0,771332	4,174957
0,863000	0,770416	4,999847
0,864000	0,771484	4,999847
0,865000	0,770111	4,999847
0,866000	0,771790	4,999847
0,867000	0,769653	4,999847
0,868000	0,772400	4,498901
0,869000	0,770111	3,631744
0,870000	0,771942	2,367096
0,871000	0,770111	4,604187
0,872000	0,771027	4,999847
0,873000	0,770416	4,999847
0,874000	0,770111	4,999847
0,875000	0,770569	4,999847
0,876000	0,770111	4,999847
0,877000	0,771027	4,999847
0,878000	0,769806	4,554138
0,879000	0,770874	4,057312
0,880000	0,769653	1,854553
0,881000	0,771332	3,908539
0,882000	0,769501	4,895935
0,883000	0,771179	4,999847
0,884000	0,769653	4,999847
0,885000	0,770721	4,999847
0,886000	0,769958	4,999847
0,887000	0,770721	4,999847
0,888000	0,770264	4,101257
0,889000	0,770111	3,273010
0,890000	0,770111	4,339905
0,891000	0,770111	4,009705
0,892000	0,771027	4,627533
0,893000	0,769653	4,999847
0,894000	0,771027	4,999847
0,895000	0,769653	4,999847
0,896000	0,770874	4,999847
0,897000	0,769348	4,999847
0,898000	0,770721	4,999847
0,899000	0,769196	4,484558
0,900000	0,769806	3,226624
0,901000	0,769348	2,366943
0,902000	0,769653	4,192352
0,903000	0,769348	4,999847
0,904000	0,769348	4,999847
0,905000	0,769653	4,999847
0,906000	0,769501	4,999847
0,907000	0,770264	4,999847
0,908000	0,769196	4,585571
0,909000	0,770111	2,793579
0,910000	0,769043	3,826294
0,911000	0,770111	3,862915
0,912000	0,768585	4,999847
0,913000	0,769501	4,999847
0,914000	0,768738	4,999847
0,915000	0,769958	4,999847
0,916000	0,769196	4,999847
0,917000	0,769501	4,999847
0,918000	0,769501	4,447784
0,919000	0,768890	3,958893
0,920000	0,769958	3,479767
0,921000	0,769501	3,032379
0,922000	0,769958	3,508606
0,923000	0,768890	4,999847
0,924000	0,769653	4,999847
0,925000	0,768433	4,999847
0,926000	0,770111	4,999847
0,927000	0,768890	4,999847
0,928000	0,770111	4,630432
0,929000	0,769348	3,452301
0,930000	0,769043	2,872009
0,931000	0,768890	4,700470
0,932000	0,769196	4,696350
0,933000	0,769348	4,999847
0,934000	0,769043	4,999847
0,935000	0,768280	4,999847
0,936000	0,768127	4,999847
0,937000	0,769501	4,999847
0,938000	0,768890	4,472504
0,939000	0,769501	4,614563
0,940000	0,768738	3,619843
0,941000	0,769348	3,764191
0,942000	0,769043	3,046112
0,943000	0,769348	4,999847
0,944000	0,769196	4,999847
0,945000	0,768890	4,999847
0,946000	0,768890	4,999847
0,947000	0,768890	4,999847
0,948000	0,769043	3,673706
0,949000	0,768890	3,632202
0,950000	0,769348	4,072113
0,951000	0,769653	3,734436
0,952000	0,769501	4,999847
0,953000	0,769653	4,999847
0,954000	0,769958	4,999847
0,955000	0,769806	4,999847
0,956000	0,769806	4,999847
0,957000	0,769958	4,999847
0,958000	0,770111	4,884491
0,959000	0,770111	4,708710
0,960000	0,770264	4,139099
0,961000	0,769806	3,703156
0,962000	0,770264	4,332886
0,963000	0,769958	4,999847
0,964000	0,769958	4,999847
0,965000	0,769501	4,999847
0,966000	0,769653	4,999847
0,967000	0,769806	4,999847
0,968000	0,769958	4,999847
0,969000	0,770111	3,597870
0,970000	0,770264	2,540894
0,971000	0,770264	4,730835
0,972000	0,770111	4,548645
0,973000	0,769958	4,999847
0,974000	0,769958	4,999847
0,975000	0,769653	4,999847
0,976000	0,769653	4,999847
0,977000	0,769806	4,999847
0,978000	0,769958	4,999847
0,979000	0,769806	3,967438
0,980000	0,784454	3,523560
0,981000	0,798340	3,659210
0,982000	0,799561	4,302063
0,983000	0,805359	4,705811
0,984000	0,801239	4,999847
0,985000	0,807495	4,999847
0,986000	0,802155	4,999847
0,987000	0,806580	4,999847
0,988000	0,802917	4,408722
0,989000	0,804901	3,874969
0,990000	0,803528	2,327271
0,991000	0,803375	4,999847
0,992000	0,804138	4,546661
0,993000	0,802460	4,999847
0,994000	0,805054	4,999847
0,995000	0,800476	4,999847
0,996000	0,805664	4,999847
0,997000	0,799103	4,999847
0,998000	0,804596	4,768219
0,999000	0,797577	3,762665

