LabVIEW Measurement	
Writer_Version	2
Reader_Version	2
Separator	Tab
Decimal_Separator	,
Multi_Headings	Yes
X_Columns	One
Time_Pref	Absolute
Operator	d.nicolai
Date	2023/11/09
Time	16:46:38,4425126999997713665
***End_of_Header***	
	
Channels	2		
Samples	1000	1000	
Date	2023/11/09	2023/11/09	
Time	16:46:56,9905124999994876155	16:46:56,9905124999994876155	
Y_Unit_Label	Volts	Volts	
X_Dimension	Time	Time	
X0	0,0000000000000000E+0	0,0000000000000000E+0	
Delta_X	0,001000	0,001000	
***End_of_Header***			
X_Value	powebox	triggerbox	Comment
0,000000	0,977325	1,008148
0,001000	1,063538	4,721832
0,002000	0,962677	4,999847
0,003000	1,085205	4,999847
0,004000	0,949402	4,999847
0,005000	1,101685	4,999847
0,006000	0,954742	4,999847
0,007000	1,074371	4,999847
0,008000	0,987854	4,999847
0,009000	1,050110	4,508820
0,010000	1,017761	3,725891
0,011000	1,029358	3,662262
0,012000	1,045380	3,729553
0,013000	1,009827	4,999847
0,014000	1,071320	4,999847
0,015000	0,993042	4,999847
0,016000	1,094360	4,999847
0,017000	0,978546	4,972382
0,018000	1,110535	4,999847
0,019000	0,965271	3,795166
0,020000	0,980072	3,045044
0,021000	0,988617	4,660339
0,022000	0,992279	4,541321
0,023000	0,993958	4,999847
0,024000	0,994110	4,999847
0,025000	0,994415	4,999847
0,026000	0,994568	4,999847
0,027000	0,994415	4,999847
0,028000	0,994110	4,999847
0,029000	1,107025	4,197998
0,030000	0,985565	3,643188
0,031000	1,077576	4,822235
0,032000	1,017151	4,374847
0,033000	1,055145	4,999847
0,034000	1,047211	4,999847
0,035000	1,035767	4,999847
0,036000	1,075287	4,999847
0,037000	1,018372	4,999847
0,038000	1,098328	4,999847
0,039000	1,002655	3,101654
0,040000	1,114044	3,219757
0,041000	0,989075	4,508820
0,042000	1,120758	4,999847
0,043000	0,977631	4,999847
0,044000	1,099548	4,999847
0,045000	1,012268	4,999847
0,046000	1,077881	4,999847
0,047000	1,047974	4,999847
0,048000	1,058044	4,999847
0,049000	1,076202	3,518982
0,050000	1,040192	3,880463
0,051000	1,100922	4,192657
0,052000	1,024628	4,583893
0,053000	1,116943	4,999847
0,054000	1,010590	4,999847
0,055000	1,123199	4,999847
0,056000	0,998688	4,999847
0,057000	1,124268	4,999847
0,058000	1,001129	4,999847
0,059000	1,093750	3,526917
0,060000	1,036224	2,915497
0,061000	1,072540	4,999847
0,062000	1,069031	4,957123
0,063000	1,055756	4,999847
0,064000	1,085663	4,999847
0,065000	1,040955	4,999847
0,066000	1,115570	4,999847
0,067000	1,027527	4,999847
0,068000	1,121826	4,999847
0,069000	1,015930	4,133453
0,070000	1,123810	3,894806
0,071000	1,004944	4,267426
0,072000	0,950623	3,765106
0,073000	0,925598	4,999847
0,074000	0,915222	4,999847
0,075000	0,906982	4,999847
0,076000	0,904236	4,999847
0,077000	0,903625	4,999847
0,078000	0,902557	4,999847
0,079000	0,902405	3,277435
0,080000	0,902252	4,260254
0,081000	0,901794	4,278412
0,082000	0,836029	4,777985
0,083000	0,919189	4,999847
0,084000	0,956116	4,999847
0,085000	0,964508	4,999847
0,086000	0,889740	4,999847
0,087000	0,726624	4,999847
0,088000	0,642700	4,999847
0,089000	0,618286	3,583832
0,090000	0,601654	4,220428
0,091000	0,595856	3,483887
0,092000	0,598907	3,757324
0,093000	0,589752	4,999847
0,094000	0,602722	4,999847
0,095000	0,587311	4,999847
0,096000	0,606995	4,999847
0,097000	0,585632	4,999847
0,098000	0,612030	4,978180
0,099000	0,584106	3,237610
0,100000	0,611420	3,155670
0,101000	0,589905	4,061890
0,102000	0,607605	4,765778
0,103000	0,598145	4,999847
0,104000	0,605011	4,999847
0,105000	0,584869	4,999847
0,106000	0,595245	4,999847
0,107000	0,610962	4,999847
0,108000	0,599518	4,999847
0,109000	0,620270	3,877716
0,110000	0,597534	4,440765
0,111000	0,626526	3,074951
0,112000	0,593872	4,539185
0,113000	0,631714	4,999847
0,114000	0,595093	4,999847
0,115000	0,627441	4,999847
0,116000	0,604248	4,999847
0,117000	0,621643	4,999847
0,118000	0,613098	4,608917
0,119000	0,606079	3,064880
0,120000	0,597534	3,137512
0,121000	0,602112	4,546356
0,122000	0,606689	4,849396
0,123000	0,598755	4,999847
0,124000	0,618591	4,999847
0,125000	0,596619	4,999847
0,126000	0,626526	4,999847
0,127000	0,592957	4,999847
0,128000	0,633392	4,999847
0,129000	0,599976	3,624725
0,130000	0,637970	4,824982
0,131000	0,616302	3,399353
0,132000	0,633850	3,610840
0,133000	0,628052	4,999847
0,134000	0,628204	4,999847
0,135000	0,638275	4,999847
0,136000	0,622101	4,999847
0,137000	0,647430	4,999847
0,138000	0,617218	4,157257
0,139000	0,656891	3,233337
0,140000	0,612488	4,139709
0,141000	0,665436	4,286499
0,142000	0,608215	4,486084
0,143000	0,662537	4,999847
0,144000	0,619812	4,999847
0,145000	0,654602	4,999847
0,146000	0,633240	4,999847
0,147000	0,646515	4,999847
0,148000	0,644989	4,999847
0,149000	0,638733	3,711548
0,150000	0,656433	3,677521
0,151000	0,631714	4,199677
0,152000	0,667114	4,234772
0,153000	0,625916	4,999847
0,154000	0,677338	4,999847
0,155000	0,620422	4,999847
0,156000	0,686493	4,999847
0,157000	0,620880	4,999847
0,158000	0,678711	4,470520
0,159000	0,636139	2,949829
0,160000	0,668030	4,536285
0,161000	0,650177	3,124847
0,162000	0,657959	4,726105
0,163000	0,663147	4,999847
0,164000	0,649261	4,999847
0,165000	0,675659	4,999847
0,166000	0,641479	4,999847
0,167000	0,687561	4,999847
0,168000	0,633850	4,999847
0,169000	0,698547	3,806458
0,170000	0,628052	2,561798
0,171000	0,708160	3,911285
0,172000	0,638275	4,208221
0,173000	0,693054	4,999847
0,174000	0,652771	4,999847
0,175000	0,680542	4,999847
0,176000	0,668335	4,999847
0,177000	0,669250	4,999847
0,178000	0,682831	4,575043
0,179000	0,659332	3,257599
0,180000	0,685120	2,675476
0,181000	0,644379	4,999847
0,182000	0,704651	4,906158
0,183000	0,639801	4,999847
0,184000	0,709076	4,999847
0,185000	0,565033	4,999847
0,186000	0,673828	4,999847
0,187000	0,624390	4,999847
0,188000	0,668793	4,999847
0,189000	0,641022	3,911743
0,190000	0,655060	3,005829
0,191000	0,643311	4,721375
0,192000	0,630798	4,466553
0,193000	0,652466	4,999847
0,194000	0,597992	4,999847
0,195000	0,656433	4,999847
0,196000	0,606842	4,999847
0,197000	0,676422	4,999847
0,198000	0,601654	4,704285
0,199000	0,689240	3,470917
0,200000	0,600281	2,137756
0,201000	0,678711	4,382477
0,202000	0,598297	4,999847
0,203000	0,654755	4,999847
0,204000	0,634766	4,999847
0,205000	0,649261	4,999847
0,206000	0,654907	4,999847
0,207000	0,638275	4,999847
0,208000	0,671387	4,999847
0,209000	0,627594	4,720154
0,210000	0,685883	4,011536
0,211000	0,617828	3,543243
0,212000	0,699615	4,375000
0,213000	0,609283	4,999847
0,214000	0,709076	4,999847
0,215000	0,617065	4,999847
0,216000	0,691223	4,999847
0,217000	0,638428	4,999847
0,218000	0,675201	4,077911
0,219000	0,658112	4,089050
0,220000	0,661469	3,251801
0,221000	0,676117	4,152222
0,222000	0,648193	4,999847
0,223000	0,693359	4,999847
0,224000	0,636749	4,999847
0,225000	0,708771	4,999847
0,226000	0,627899	4,999847
0,227000	0,722198	4,999847
0,228000	0,616913	4,999847
0,229000	0,722198	4,375763
0,230000	0,636139	2,816010
0,231000	0,702057	4,134979
0,232000	0,657959	4,028320
0,233000	0,686340	4,999847
0,234000	0,679169	4,999847
0,235000	0,671387	4,999847
0,236000	0,698547	4,999847
0,237000	0,657959	4,999847
0,238000	0,716248	4,824219
0,239000	0,635834	3,907013
0,240000	0,726929	2,628479
0,241000	0,618439	4,584656
0,242000	0,738983	4,999847
0,243000	0,615082	4,999847
0,244000	0,727081	4,999847
0,245000	0,653229	4,999847
0,246000	0,713196	4,999847
0,247000	0,670929	4,999847
0,248000	0,681458	4,882812
0,249000	0,693054	4,239960
0,250000	0,677795	2,382965
0,251000	0,709991	4,288788
0,252000	0,662537	4,247437
0,253000	0,723267	4,760742
0,254000	0,647888	4,999847
0,255000	0,731354	4,999847
0,256000	0,633698	4,999847
0,257000	0,763550	4,999847
0,258000	0,641937	4,544830
0,259000	0,741730	3,548279
0,260000	0,675812	3,600006
0,261000	0,724487	3,827820
0,262000	0,701447	4,897766
0,263000	0,707245	4,999847
0,264000	0,723572	4,999847
0,265000	0,691223	4,999847
0,266000	0,743713	4,999847
0,267000	0,676880	4,999847
0,268000	0,761871	4,999847
0,269000	0,663757	4,991608
0,270000	0,778809	2,522583
0,271000	0,652771	4,730225
0,272000	0,780334	3,380890
0,273000	0,674133	4,999847
0,274000	0,757141	4,999847
0,275000	0,700531	4,999847
0,276000	0,736542	4,999847
0,277000	0,725708	4,999847
0,278000	0,718842	4,946136
0,279000	0,748138	4,057312
0,280000	0,702667	3,290100
0,281000	0,768585	4,999847
0,282000	0,688782	4,999847
0,283000	0,787964	4,999847
0,284000	0,676422	4,999847
0,285000	0,804749	4,999847
0,286000	0,669403	4,999847
0,287000	0,689850	4,999847
0,288000	0,655670	4,840698
0,289000	0,751495	4,842072
0,290000	0,719147	4,443359
0,291000	0,746307	3,775940
0,292000	0,750580	4,319611
0,293000	0,731354	4,999847
0,294000	0,774536	4,999847
0,295000	0,715790	4,999847
0,296000	0,795593	4,999847
0,297000	0,702057	4,999847
0,298000	0,814972	4,999847
0,299000	0,690002	2,977448
0,300000	0,831146	4,300537
0,301000	0,696716	4,097137
0,302000	0,807190	4,949036
0,303000	0,729828	4,999847
0,304000	0,784149	4,999847
0,305000	0,754852	4,999847
0,306000	0,764465	4,999847
0,307000	0,780182	4,999847
0,308000	0,746918	4,999847
0,309000	0,802917	4,571838
0,310000	0,731049	2,947235
0,311000	0,823669	4,999847
0,312000	0,717773	3,727722
0,313000	0,842743	4,999847
0,314000	0,692596	4,999847
0,315000	0,840912	4,999847
0,316000	0,724030	4,999847
0,317000	0,820465	4,999847
0,318000	0,756989	4,999847
0,319000	0,799255	3,895111
0,320000	0,784607	2,852020
0,321000	0,779877	4,999847
0,322000	0,809631	4,674377
0,323000	0,763092	4,999847
0,324000	0,832367	4,999847
0,325000	0,747833	4,999847
0,326000	0,853271	4,999847
0,327000	0,735321	4,999847
0,328000	0,871735	4,974060
0,329000	0,725861	4,533997
0,330000	0,861969	4,247437
0,331000	0,758514	3,314514
0,332000	0,838013	3,205414
0,333000	0,788879	4,999847
0,334000	0,816193	4,999847
0,335000	0,815735	4,999847
0,336000	0,797577	4,999847
0,337000	0,840759	4,999847
0,338000	0,781403	4,999847
0,339000	0,863342	2,859039
0,340000	0,766907	2,383270
0,341000	0,883636	3,904572
0,342000	0,754700	4,784546
0,343000	0,902557	4,999847
0,344000	0,759888	4,999847
0,345000	0,878448	4,999847
0,346000	0,792389	4,999847
0,347000	0,855255	4,999847
0,348000	0,821838	4,997406
0,349000	0,834808	4,027557
0,350000	0,848999	2,877197
0,351000	0,816650	4,892273
0,352000	0,873108	3,846283
0,353000	0,801544	4,999847
0,354000	0,895081	4,999847
0,355000	0,788116	4,999847
0,356000	0,915375	4,999847
0,357000	0,775757	4,999847
0,358000	0,921326	4,748383
0,359000	0,794678	3,774567
0,360000	0,895844	3,674011
0,361000	0,826721	4,631042
0,362000	0,840454	4,915161
0,363000	0,841675	4,999847
0,364000	0,847931	4,999847
0,365000	0,879364	4,999847
0,366000	0,835571	4,999847
0,367000	0,904999	4,999847
0,368000	0,821381	4,999847
0,369000	0,926514	3,853912
0,370000	0,808563	3,254547
0,371000	0,946198	3,917542
0,372000	0,798035	3,495331
0,373000	0,938721	4,999847
0,374000	0,830688	4,999847
0,375000	0,913544	4,999847
0,376000	0,861511	4,999847
0,377000	0,890350	4,999847
0,378000	0,888519	4,999847
0,379000	0,872498	2,997131
0,380000	0,914764	3,460846
0,381000	0,857086	4,099884
0,382000	0,938263	4,695892
0,383000	0,843048	4,999847
0,384000	0,959167	4,999847
0,385000	0,830231	4,999847
0,386000	0,977783	4,999847
0,387000	0,832367	4,999847
0,388000	0,955505	4,999847
0,389000	0,803375	4,259644
0,390000	0,857849	2,886353
0,391000	0,865021	3,926697
0,392000	0,898132	3,586426
0,393000	0,917969	4,999847
0,394000	0,890808	4,999847
0,395000	0,947418	4,999847
0,396000	0,877228	4,999847
0,397000	0,970001	4,999847
0,398000	0,844269	4,813080
0,399000	0,982361	3,731842
0,400000	0,848846	3,725739
0,401000	0,998230	3,944092
0,402000	0,868073	4,561157
0,403000	0,973969	4,999847
0,404000	0,901642	4,999847
0,405000	0,951996	4,999847
0,406000	0,930939	4,999847
0,407000	0,932617	4,999847
0,408000	0,957489	4,999847
0,409000	0,915375	4,311218
0,410000	0,981903	3,242950
0,411000	0,901184	4,714203
0,412000	1,003723	3,504181
0,413000	0,887604	4,999847
0,414000	1,024323	4,999847
0,415000	0,875702	4,999847
0,416000	1,020508	4,999847
0,417000	0,906830	4,999847
0,418000	0,997162	4,658356
0,419000	0,939484	3,672180
0,420000	0,976562	2,976990
0,421000	0,968781	4,914093
0,422000	0,936432	4,999847
0,423000	0,985870	4,999847
0,424000	0,937805	4,999847
0,425000	1,018524	4,999847
0,426000	0,930328	4,999847
0,427000	1,047058	4,999847
0,428000	0,918274	4,999847
0,429000	1,066589	4,163055
0,430000	0,917053	2,386627
0,431000	1,048126	3,995209
0,432000	0,950623	2,350464
0,433000	1,022339	4,999847
0,434000	0,977783	4,999847
0,435000	0,999603	4,999847
0,436000	1,004486	4,999847
0,437000	0,980377	4,999847
0,438000	1,029510	4,455872
0,439000	0,963287	4,028778
0,440000	1,053619	4,065094
0,441000	0,948639	3,949127
0,442000	1,074371	4,431610
0,443000	0,935211	4,999847
0,444000	1,082458	4,999847
0,445000	0,947418	4,999847
0,446000	1,054993	4,999847
0,447000	0,979462	4,999847
0,448000	1,035004	4,928284
0,449000	1,007843	4,528961
0,450000	1,011353	3,658600
0,451000	1,035004	3,382568
0,452000	0,992889	3,429718
0,453000	1,060181	4,999847
0,454000	0,976562	4,999847
0,455000	1,081085	4,999847
0,456000	0,961914	4,999847
0,457000	0,961456	4,999847
0,458000	0,970612	4,141693
0,459000	0,974579	3,010712
0,460000	1,000519	3,853912
0,461000	1,058655	3,412933
0,462000	1,001282	4,999847
0,463000	1,035004	4,999847
0,464000	1,029205	4,999847
0,465000	1,016235	4,999847
0,466000	1,056671	4,999847
0,467000	0,998993	4,999847
0,468000	1,080170	4,999847
0,469000	0,983429	3,916016
0,470000	1,095428	3,962097
0,471000	0,970001	3,638000
0,472000	1,102142	3,523254
0,473000	0,961914	4,999847
0,474000	1,059265	4,999847
0,475000	0,986481	4,999847
0,476000	1,055450	4,999847
0,477000	1,026764	4,999847
0,478000	1,036530	4,803467
0,479000	1,056824	3,558044
0,480000	1,019440	3,535614
0,481000	1,081543	4,756012
0,482000	1,004486	4,907990
0,483000	1,097565	4,999847
0,484000	0,991211	4,999847
0,485000	1,103516	4,999847
0,486000	0,979156	4,999847
0,487000	1,103821	4,999847
0,488000	0,986023	4,522400
0,489000	1,073914	4,999847
0,490000	1,020660	4,046478
0,491000	1,053925	3,754425
0,492000	0,963898	3,856049
0,493000	1,032715	4,999847
0,494000	1,078644	4,999847
0,495000	1,023254	4,999847
0,496000	1,098785	4,999847
0,497000	1,009979	4,999847
0,498000	1,105499	4,474487
0,499000	0,998688	3,589172
0,500000	1,107635	3,578949
0,501000	0,988464	3,947144
0,502000	1,094818	4,999847
0,503000	0,979767	4,999847
0,504000	0,929108	4,999847
0,505000	0,907288	4,999847
0,506000	0,898132	4,999847
0,507000	0,894165	4,999847
0,508000	0,892487	4,827576
0,509000	0,891571	3,795624
0,510000	0,891266	3,463898
0,511000	0,890961	3,692627
0,512000	0,890961	3,656616
0,513000	0,891266	4,999847
0,514000	0,891571	4,999847
0,515000	0,891266	4,999847
0,516000	0,891418	4,999847
0,517000	0,891571	4,999847
0,518000	0,891266	4,150696
0,519000	0,890961	4,170685
0,520000	0,890961	3,009338
0,521000	0,891113	3,456573
0,522000	0,890961	4,793243
0,523000	0,814667	4,999847
0,524000	0,664673	4,999847
0,525000	0,587463	4,999847
0,526000	0,564270	4,999847
0,527000	0,543976	4,999847
0,528000	0,541382	4,999847
0,529000	0,545654	4,999847
0,530000	0,538177	2,765808
0,531000	0,543060	3,654480
0,532000	0,522003	4,093628
0,533000	0,548248	4,782104
0,534000	0,532074	4,999847
0,535000	0,558014	4,999847
0,536000	0,532837	4,999847
0,537000	0,558167	4,999847
0,538000	0,540161	4,365387
0,539000	0,555267	4,397430
0,540000	0,546265	2,798309
0,541000	0,552063	4,486847
0,542000	0,552979	4,999847
0,543000	0,549316	4,999847
0,544000	0,559235	4,999847
0,545000	0,546722	4,999847
0,546000	0,565033	4,999847
0,547000	0,544281	4,999847
0,548000	0,571136	4,514923
0,549000	0,541687	4,417267
0,550000	0,576477	4,541931
0,551000	0,543060	3,516541
0,552000	0,572662	3,828278
0,553000	0,551453	4,999847
0,554000	0,567627	4,999847
0,555000	0,559692	4,999847
0,556000	0,563202	4,999847
0,557000	0,567322	4,999847
0,558000	0,559235	4,426575
0,559000	0,574951	3,945465
0,560000	0,555267	3,633881
0,561000	0,582123	3,004456
0,562000	0,551910	4,999847
0,563000	0,588989	4,955597
0,564000	0,549011	4,999847
0,565000	0,592194	4,999847
0,566000	0,554657	4,999847
0,567000	0,585937	4,999847
0,568000	0,565033	4,999847
0,569000	0,579681	4,540863
0,570000	0,574646	4,261627
0,571000	0,574646	3,470917
0,572000	0,584106	3,560028
0,573000	0,569000	4,999847
0,574000	0,592804	4,999847
0,575000	0,564423	4,999847
0,576000	0,600739	4,999847
0,577000	0,560303	4,999847
0,578000	0,608521	4,532776
0,579000	0,556335	4,119110
0,580000	0,607605	3,316040
0,581000	0,567780	3,254700
0,582000	0,599365	4,831085
0,583000	0,580139	4,999847
0,584000	0,591736	4,999847
0,585000	0,591125	4,999847
0,586000	0,584564	4,999847
0,587000	0,600891	4,999847
0,588000	0,578461	4,817352
0,589000	0,610657	4,331665
0,590000	0,572968	3,813629
0,591000	0,619812	3,091583
0,592000	0,567474	4,074707
0,593000	0,628357	4,999847
0,594000	0,510712	4,999847
0,595000	0,573273	4,999847
0,596000	0,562286	4,999847
0,597000	0,602722	4,999847
0,598000	0,591888	4,323273
0,599000	0,601044	3,920135
0,600000	0,607147	3,188934
0,601000	0,594482	4,800720
0,602000	0,619202	4,999847
0,603000	0,587311	4,999847
0,604000	0,630341	4,999847
0,605000	0,581055	4,999847
0,606000	0,639801	4,999847
0,607000	0,574646	4,999847
0,608000	0,645905	4,999847
0,609000	0,582733	4,435577
0,610000	0,634003	2,662354
0,611000	0,598145	4,572144
0,612000	0,623169	3,256073
0,613000	0,612793	4,608307
0,614000	0,612640	4,999847
0,615000	0,625916	4,999847
0,616000	0,603943	4,999847
0,617000	0,638428	4,999847
0,618000	0,595856	4,999847
0,619000	0,650635	3,864441
0,620000	0,589142	3,752289
0,621000	0,661163	3,372040
0,622000	0,582275	4,999847
0,623000	0,660095	4,999847
0,624000	0,598450	4,999847
0,625000	0,646820	4,999847
0,626000	0,615387	4,999847
0,627000	0,634308	4,999847
0,628000	0,631409	4,999847
0,629000	0,623474	4,219360
0,630000	0,645905	3,202972
0,631000	0,613556	4,382172
0,632000	0,659332	3,334656
0,633000	0,604858	4,981384
0,634000	0,671997	4,999847
0,635000	0,596466	4,999847
0,636000	0,683746	4,999847
0,637000	0,595856	4,999847
0,638000	0,673370	4,999847
0,639000	0,615540	3,558044
0,640000	0,658569	3,605804
0,641000	0,633850	4,058990
0,642000	0,645447	4,612122
0,643000	0,650787	4,999847
0,644000	0,633698	4,999847
0,645000	0,666351	4,999847
0,646000	0,623016	4,999847
0,647000	0,681458	4,999847
0,648000	0,613098	4,748077
0,649000	0,694275	4,211426
0,650000	0,604401	2,665253
0,651000	0,703735	4,821625
0,652000	0,612640	4,247589
0,653000	0,686035	4,999847
0,654000	0,634003	4,999847
0,655000	0,669708	4,999847
0,656000	0,644989	4,999847
0,657000	0,650635	4,999847
0,658000	0,668488	4,999847
0,659000	0,641632	3,387604
0,660000	0,655975	2,973328
0,661000	0,618439	3,452148
0,662000	0,697632	4,992218
0,663000	0,619202	4,999847
0,664000	0,716248	4,999847
0,665000	0,611877	4,999847
0,666000	0,716553	4,999847
0,667000	0,632019	4,999847
0,668000	0,697937	4,999847
0,669000	0,654602	4,249420
0,670000	0,681458	4,255829
0,671000	0,657349	3,211212
0,672000	0,659027	3,480377
0,673000	0,688171	4,935760
0,674000	0,643768	4,999847
0,675000	0,706787	4,999847
0,676000	0,639191	4,999847
0,677000	0,725861	4,999847
0,678000	0,630341	4,999847
0,679000	0,711212	4,030304
0,680000	0,614471	3,812866
0,681000	0,724030	3,558807
0,682000	0,650177	4,467010
0,683000	0,708771	4,999847
0,684000	0,675201	4,999847
0,685000	0,692291	4,999847
0,686000	0,696869	4,999847
0,687000	0,676880	4,999847
0,688000	0,716553	4,999847
0,689000	0,662994	4,502106
0,690000	0,734100	4,159088
0,691000	0,650482	3,906555
0,692000	0,750580	2,567291
0,693000	0,639954	4,999847
0,694000	0,763245	4,999847
0,695000	0,647888	4,999847
0,696000	0,741577	4,999847
0,697000	0,612488	4,999847
0,698000	0,695496	4,956055
0,699000	0,687408	2,943268
0,700000	0,699310	4,390106
0,701000	0,718231	3,203278
0,702000	0,686798	4,555969
0,703000	0,740204	4,999847
0,704000	0,673370	4,999847
0,705000	0,758667	4,999847
0,706000	0,661011	4,999847
0,707000	0,775452	4,999847
0,708000	0,650330	4,999847
0,709000	0,776672	3,919678
0,710000	0,671844	3,158417
0,711000	0,753937	4,999847
0,712000	0,698853	2,794037
0,713000	0,733643	4,611816
0,714000	0,723267	4,999847
0,715000	0,715942	4,999847
0,716000	0,745850	4,999847
0,717000	0,700073	4,999847
0,718000	0,766144	4,876709
0,719000	0,686188	3,590698
0,720000	0,785522	3,110504
0,721000	0,673828	4,999847
0,722000	0,802765	4,507904
0,723000	0,668030	4,999847
0,724000	0,790558	4,999847
0,725000	0,698547	4,999847
0,726000	0,768280	4,999847
0,727000	0,726166	4,999847
0,728000	0,748138	4,999847
0,729000	0,750885	4,210052
0,730000	0,730438	3,482513
0,731000	0,773773	3,890228
0,732000	0,714722	3,129730
0,733000	0,794373	4,999847
0,734000	0,700836	4,999847
0,735000	0,812988	4,999847
0,736000	0,688629	4,999847
0,737000	0,829773	4,999847
0,738000	0,697784	4,716949
0,739000	0,805359	3,221130
0,740000	0,726166	4,360504
0,741000	0,782776	3,755951
0,742000	0,754700	4,482117
0,743000	0,763092	4,999847
0,744000	0,779572	4,999847
0,745000	0,746155	4,999847
0,746000	0,802307	4,999847
0,747000	0,730438	4,999847
0,748000	0,823059	4,999847
0,749000	0,718384	3,476410
0,750000	0,843048	3,133240
0,751000	0,704803	4,999847
0,752000	0,845947	2,795105
0,753000	0,727692	4,999847
0,754000	0,821686	4,999847
0,755000	0,757446	4,999847
0,756000	0,798950	4,999847
0,757000	0,784912	4,999847
0,758000	0,779572	4,974060
0,759000	0,810089	3,925476
0,760000	0,763092	4,758148
0,761000	0,832825	3,611908
0,762000	0,748138	4,808350
0,763000	0,853271	4,999847
0,764000	0,735168	4,999847
0,765000	0,872498	4,999847
0,766000	0,726318	4,999847
0,767000	0,861053	4,999847
0,768000	0,758820	4,999847
0,769000	0,837402	4,557037
0,770000	0,788727	3,549042
0,771000	0,816040	4,837799
0,772000	0,816498	3,396912
0,773000	0,797729	4,999847
0,774000	0,841980	4,999847
0,775000	0,782623	4,999847
0,776000	0,864716	4,999847
0,777000	0,768433	4,999847
0,778000	0,886688	4,870911
0,779000	0,756683	2,903595
0,780000	0,905762	4,455719
0,781000	0,762024	3,125458
0,782000	0,880737	4,599304
0,783000	0,795593	4,999847
0,784000	0,857697	4,999847
0,785000	0,825958	4,999847
0,786000	0,837708	4,999847
0,787000	0,852356	4,999847
0,788000	0,819550	4,989014
0,789000	0,876312	3,633118
0,790000	0,803528	3,815613
0,791000	0,898590	4,390259
0,792000	0,790558	3,800354
0,793000	0,918427	4,999847
0,794000	0,778961	4,999847
0,795000	0,925598	4,999847
0,796000	0,798492	4,999847
0,797000	0,899200	4,999847
0,798000	0,830688	4,933319
0,799000	0,771942	3,172302
0,800000	0,815430	3,816528
0,801000	0,820312	4,260254
0,802000	0,870667	4,999847
0,803000	0,832977	4,999847
0,804000	0,907288	4,999847
0,805000	0,823975	4,999847
0,806000	0,930328	4,999847
0,807000	0,811615	4,999847
0,808000	0,950623	4,754333
0,809000	0,801697	3,758087
0,810000	0,943146	3,525848
0,811000	0,835571	4,311066
0,812000	0,917511	4,215546
0,813000	0,866394	4,999847
0,814000	0,895996	4,999847
0,815000	0,897064	4,999847
0,816000	0,877838	4,999847
0,817000	0,920410	4,999847
0,818000	0,861053	4,859161
0,819000	0,942688	3,559418
0,820000	0,847473	3,440857
0,821000	0,964050	4,120483
0,822000	0,834351	4,999847
0,823000	0,982513	4,999847
0,824000	0,836792	4,999847
0,825000	0,959930	4,999847
0,826000	0,870514	4,999847
0,827000	0,935974	4,999847
0,828000	0,901031	4,999847
0,829000	0,915680	4,223480
0,830000	0,928802	3,723297
0,831000	0,897980	4,448700
0,832000	0,953827	4,022827
0,833000	0,882416	4,980927
0,834000	0,976257	4,999847
0,835000	0,868835	4,999847
0,836000	0,996094	4,999847
0,837000	0,857697	4,999847
0,838000	1,004333	4,720459
0,839000	0,873871	3,308868
0,840000	0,979309	3,780365
0,841000	0,906982	3,102875
0,842000	0,956421	4,999847
0,843000	0,937042	4,999847
0,844000	0,937347	4,999847
0,845000	0,963440	4,999847
0,846000	0,920258	4,999847
0,847000	0,987854	4,999847
0,848000	0,905151	4,673157
0,849000	1,009369	4,999847
0,850000	0,892029	3,240204
0,851000	1,029968	3,889313
0,852000	0,879822	3,793640
0,853000	1,024628	4,744415
0,854000	0,911255	4,999847
0,855000	1,000366	4,999847
0,856000	0,943146	4,999847
0,857000	0,979156	4,999847
0,858000	0,971222	4,637756
0,859000	0,959320	3,916016
0,860000	0,997162	3,159485
0,861000	0,942993	3,397675
0,862000	1,020966	4,947357
0,863000	0,928497	4,999847
0,864000	1,044159	4,999847
0,865000	0,916138	4,999847
0,866000	1,064301	4,999847
0,867000	0,903778	4,999847
0,868000	1,040039	4,991302
0,869000	0,945892	4,345093
0,870000	1,020508	2,916870
0,871000	0,978394	4,930573
0,872000	1,000366	4,318848
0,873000	1,005707	4,999847
0,874000	0,980988	4,999847
0,875000	0,998688	4,999847
0,876000	0,948944	4,999847
0,877000	1,047974	4,999847
0,878000	0,947418	4,830322
0,879000	1,075439	4,503021
0,880000	0,936432	4,231110
0,881000	1,083832	4,190826
0,882000	0,949554	4,999847
0,883000	1,056976	4,999847
0,884000	0,981445	4,999847
0,885000	1,033936	4,999847
0,886000	1,010284	4,999847
0,887000	1,013947	4,999847
0,888000	1,038208	4,999847
0,889000	0,995178	4,999847
0,890000	1,062775	3,755341
0,891000	0,978394	4,112244
0,892000	1,083984	4,185638
0,893000	0,964813	4,999847
0,894000	0,963898	4,999847
0,895000	0,973206	4,999847
0,896000	0,977173	4,999847
0,897000	1,006165	4,999847
0,898000	1,058502	4,305267
0,899000	1,006927	3,874207
0,900000	1,035461	3,201141
0,901000	0,996094	3,316193
0,902000	0,959473	4,999847
0,903000	1,036224	4,999847
0,904000	0,996246	4,999847
0,905000	1,083374	4,999847
0,906000	0,984192	4,999847
0,907000	1,099548	4,999847
0,908000	0,971222	4,960937
0,909000	1,105804	4,318542
0,910000	0,968933	2,922516
0,911000	1,078949	4,168091
0,912000	1,002045	4,008179
0,913000	1,056824	4,834137
0,914000	1,033936	4,999847
0,915000	1,038361	4,999847
0,916000	1,064453	4,999847
0,917000	1,022186	4,999847
0,918000	1,088715	4,632416
0,919000	1,007233	4,223480
0,920000	1,103973	3,634796
0,921000	0,993805	4,000854
0,922000	1,109772	4,999847
0,923000	0,982819	4,999847
0,924000	1,104889	4,999847
0,925000	0,995178	4,999847
0,926000	1,076660	4,999847
0,927000	1,030121	4,999847
0,928000	1,057739	4,999847
0,929000	1,062927	4,861298
0,930000	1,041107	3,983154
0,931000	1,089935	3,869934
0,932000	1,026001	4,093933
0,933000	1,105194	4,999847
0,934000	1,013031	4,999847
0,935000	1,110992	4,999847
0,936000	0,980835	4,999847
0,937000	1,112061	4,999847
0,938000	0,991211	4,999847
0,939000	1,095276	3,773346
0,940000	0,982056	3,945312
0,941000	0,935822	3,447266
0,942000	0,914612	4,999847
0,943000	0,905914	4,999847
0,944000	0,901947	4,999847
0,945000	0,900116	4,999847
0,946000	0,899658	4,999847
0,947000	0,899200	4,999847
0,948000	0,898895	4,970245
0,949000	0,898590	4,038696
0,950000	0,898590	3,239746
0,951000	0,898285	4,557037
0,952000	0,898285	3,732147
0,953000	0,897980	4,999847
0,954000	0,898285	4,999847
0,955000	0,897827	4,999847
0,956000	0,898132	4,999847
0,957000	0,898285	4,999847
0,958000	0,898437	4,888916
0,959000	0,897827	3,802338
0,960000	0,898132	3,764801
0,961000	0,796204	4,201660
0,962000	0,669250	4,999847
0,963000	0,635376	4,999847
0,964000	0,597229	4,999847
0,965000	0,608826	4,999847
0,966000	0,580750	4,999847
0,967000	0,601959	4,999847
0,968000	0,583038	4,999847
0,969000	0,597382	4,040985
0,970000	0,588684	3,235474
0,971000	0,594940	4,239655
0,972000	0,594482	3,651581
0,973000	0,590973	4,999847
0,974000	0,599518	4,999847
0,975000	0,588684	4,999847
0,976000	0,604858	4,999847
0,977000	0,585632	4,999847
0,978000	0,611267	4,999847
0,979000	0,583801	3,400726
0,980000	0,615845	3,949280
0,981000	0,583954	4,356537
0,982000	0,612030	4,957123
0,983000	0,592194	4,999847
0,984000	0,608978	4,999847
0,985000	0,600128	4,999847
0,986000	0,604401	4,999847
0,987000	0,607452	4,999847
0,988000	0,585937	4,999847
0,989000	0,608826	4,164734
0,990000	0,594635	3,398895
0,991000	0,623474	3,979950
0,992000	0,597229	4,295502
0,993000	0,633087	4,999847
0,994000	0,594025	4,999847
0,995000	0,620880	4,999847
0,996000	0,580902	4,999847
0,997000	0,605469	4,999847
0,998000	0,586090	4,953156
0,999000	0,595856	3,040314

