LabVIEW Measurement	
Writer_Version	2
Reader_Version	2
Separator	Tab
Decimal_Separator	,
Multi_Headings	Yes
X_Columns	One
Time_Pref	Absolute
Operator	d.nicolai
Date	2023/11/09
Time	16:46:38,4425126999997713665
***End_of_Header***	
	
Channels	2		
Samples	1000	1000	
Date	2023/11/09	2023/11/09	
Time	16:47:03,8035128999995844427	16:47:03,8035128999995844427	
Y_Unit_Label	Volts	Volts	
X_Dimension	Time	Time	
X0	0,0000000000000000E+0	0,0000000000000000E+0	
Delta_X	0,001000	0,001000	
***End_of_Header***			
X_Value	powebox	triggerbox	Comment
0,000000	0,734863	1,126404
0,001000	0,679169	3,402863
0,002000	0,753174	4,999847
0,003000	0,666351	4,999847
0,004000	0,769653	4,999847
0,005000	0,654907	4,999847
0,006000	0,780945	4,999847
0,007000	0,664215	4,999847
0,008000	0,758057	4,421234
0,009000	0,691223	3,656464
0,010000	0,737762	2,947235
0,011000	0,716095	4,207153
0,012000	0,719910	4,999847
0,013000	0,738525	4,999847
0,014000	0,693512	4,999847
0,015000	0,754852	4,999847
0,016000	0,687256	4,999847
0,017000	0,765076	4,999847
0,018000	0,670929	4,999847
0,019000	0,792389	3,955841
0,020000	0,664062	3,590393
0,021000	0,793610	3,467712
0,022000	0,688019	4,999847
0,023000	0,770874	4,999847
0,024000	0,715942	4,999847
0,025000	0,750732	4,999847
0,026000	0,741425	4,999847
0,027000	0,736237	4,999847
0,028000	0,675049	4,999847
0,029000	0,680389	2,821808
0,030000	0,772247	2,494202
0,031000	0,694427	4,999847
0,032000	0,802002	4,999847
0,033000	0,686035	4,999847
0,034000	0,818329	4,999847
0,035000	0,681458	4,999847
0,036000	0,804291	4,999847
0,037000	0,711517	4,999847
0,038000	0,780792	4,999847
0,039000	0,739136	3,794708
0,040000	0,760345	3,845673
0,041000	0,764313	3,632050
0,042000	0,742035	4,198914
0,043000	0,787506	4,999847
0,044000	0,725708	4,999847
0,045000	0,808411	4,999847
0,046000	0,711975	4,999847
0,047000	0,827637	4,999847
0,048000	0,699463	4,999847
0,049000	0,842438	3,503876
0,050000	0,708313	2,498474
0,051000	0,817871	4,999847
0,052000	0,739441	4,999847
0,053000	0,794678	4,999847
0,054000	0,767365	4,999847
0,055000	0,774231	4,999847
0,056000	0,792694	4,999847
0,057000	0,756378	4,999847
0,058000	0,815735	4,999847
0,059000	0,741119	4,038849
0,060000	0,836945	4,118805
0,061000	0,727234	4,013824
0,062000	0,856171	4,999847
0,063000	0,715332	4,999847
0,064000	0,857849	4,999847
0,065000	0,738678	4,999847
0,066000	0,832672	4,999847
0,067000	0,769806	4,999847
0,068000	0,810394	4,999847
0,069000	0,797882	2,940521
0,070000	0,790710	2,426758
0,071000	0,822754	4,999847
0,072000	0,773926	4,999847
0,073000	0,846100	4,999847
0,074000	0,758209	4,999847
0,075000	0,866699	4,999847
0,076000	0,745239	4,999847
0,077000	0,886078	4,999847
0,078000	0,738068	4,999847
0,079000	0,873566	3,864899
0,080000	0,771332	2,883453
0,081000	0,848999	3,796539
0,082000	0,801849	4,871979
0,083000	0,827637	4,999847
0,084000	0,829315	4,999847
0,085000	0,807953	4,999847
0,086000	0,854645	4,999847
0,087000	0,792236	4,999847
0,088000	0,877228	4,999847
0,089000	0,777588	3,384552
0,090000	0,897522	1,915283
0,091000	0,764923	4,999847
0,092000	0,915833	4,999847
0,093000	0,772247	4,999847
0,094000	0,889893	4,999847
0,095000	0,805206	4,999847
0,096000	0,866241	4,999847
0,097000	0,835114	4,999847
0,098000	0,845642	4,999847
0,099000	0,861969	3,716888
0,100000	0,827637	4,122009
0,101000	0,887146	3,276978
0,102000	0,811768	3,950043
0,103000	0,909119	4,999847
0,104000	0,798035	4,999847
0,105000	0,929108	4,999847
0,106000	0,786438	4,999847
0,107000	0,933380	4,999847
0,108000	0,807800	4,999847
0,109000	0,907288	3,020935
0,110000	0,840302	4,415283
0,111000	0,885162	4,208221
0,112000	0,869293	4,999847
0,113000	0,865021	4,999847
0,114000	0,895844	4,999847
0,115000	0,847931	4,999847
0,116000	0,919495	4,999847
0,117000	0,832520	4,999847
0,118000	0,941315	4,999847
0,119000	0,819855	3,941498
0,120000	0,961304	2,948303
0,121000	0,810089	4,654694
0,122000	0,950775	4,650116
0,123000	0,843506	4,999847
0,124000	0,925751	4,999847
0,125000	0,875702	4,999847
0,126000	0,904541	4,999847
0,127000	0,903931	4,999847
0,128000	0,885315	4,785919
0,129000	0,929260	2,711029
0,130000	0,803070	3,802948
0,131000	0,896301	4,783478
0,132000	0,830688	4,999847
0,133000	0,964050	4,999847
0,134000	0,837708	4,999847
0,135000	0,990753	4,999847
0,136000	0,845337	4,999847
0,137000	0,968170	4,999847
0,138000	0,879822	4,999847
0,139000	0,944824	3,316650
0,140000	0,910797	4,999847
0,141000	0,923920	4,344177
0,142000	0,938110	4,969940
0,143000	0,906067	4,999847
0,144000	0,963440	4,999847
0,145000	0,890198	4,999847
0,146000	0,986176	4,999847
0,147000	0,876312	4,999847
0,148000	1,006470	4,999847
0,149000	0,864258	3,245544
0,150000	1,013184	3,819733
0,151000	0,883179	4,964294
0,152000	0,987701	4,999847
0,153000	0,916138	4,999847
0,154000	0,964813	4,999847
0,155000	0,945740	4,999847
0,156000	0,945129	4,999847
0,157000	0,972900	4,999847
0,158000	0,928192	4,999847
0,159000	0,997162	3,334503
0,160000	0,912628	3,839874
0,161000	1,019287	3,001099
0,162000	0,899811	4,999847
0,163000	1,040649	4,999847
0,164000	0,888062	4,999847
0,165000	1,034241	4,999847
0,166000	0,921326	4,999847
0,167000	1,009979	4,999847
0,168000	0,953369	4,999847
0,169000	0,988007	2,422943
0,170000	0,982208	2,722931
0,171000	0,968933	4,749756
0,172000	1,008148	4,999847
0,173000	0,952301	4,999847
0,174000	1,032257	4,999847
0,175000	0,937805	4,999847
0,176000	1,055145	4,999847
0,177000	0,924988	4,999847
0,178000	1,076202	4,999847
0,179000	0,925446	3,883209
0,180000	1,054840	3,388062
0,181000	0,959320	3,864441
0,182000	1,031799	3,684235
0,183000	0,964966	4,999847
0,184000	0,998993	4,999847
0,185000	1,012421	4,999847
0,186000	0,988312	4,999847
0,187000	1,041565	4,999847
0,188000	0,972748	4,668121
0,189000	1,066437	2,573700
0,190000	0,958862	4,209900
0,191000	1,088104	4,999847
0,192000	0,946503	4,999847
0,193000	1,094666	4,999847
0,194000	0,960846	4,999847
0,195000	1,067657	4,999847
0,196000	0,993500	4,999847
0,197000	1,045227	4,999847
0,198000	1,022491	4,999847
0,199000	1,024170	4,035950
0,200000	1,050110	4,445496
0,201000	1,005554	3,777313
0,202000	1,075897	4,999847
0,203000	0,988770	4,999847
0,204000	1,096802	4,999847
0,205000	0,975037	4,999847
0,206000	0,974579	4,999847
0,207000	0,984344	4,999847
0,208000	0,988159	4,673767
0,209000	1,037445	2,923279
0,210000	1,053162	3,720551
0,211000	1,039124	4,402161
0,212000	1,031494	4,999847
0,213000	1,066284	4,999847
0,214000	1,013336	4,999847
0,215000	1,090546	4,999847
0,216000	0,997772	4,999847
0,217000	1,108093	4,999847
0,218000	0,983734	4,940796
0,219000	1,117096	4,037933
0,220000	0,971222	4,281769
0,221000	1,098328	3,251801
0,222000	1,004486	4,963684
0,223000	1,073456	4,999847
0,224000	1,036835	4,999847
0,225000	1,053925	4,999847
0,226000	1,067352	4,999847
0,227000	1,036682	4,999847
0,228000	1,094055	4,329071
0,229000	1,021271	3,486023
0,230000	1,112518	3,393250
0,231000	1,006927	2,967987
0,232000	1,120453	4,999847
0,233000	0,917664	4,999847
0,234000	1,117096	4,999847
0,235000	0,993805	4,999847
0,236000	1,094360	4,999847
0,237000	1,031647	4,999847
0,238000	1,073151	4,892731
0,239000	1,064606	4,644318
0,240000	1,055908	3,659210
0,241000	1,093903	4,136200
0,242000	1,040649	4,676971
0,243000	1,114655	4,999847
0,244000	1,027527	4,999847
0,245000	1,123505	4,999847
0,246000	1,015778	4,999847
0,247000	1,126862	4,999847
0,248000	1,005402	4,666138
0,249000	1,118011	2,802582
0,250000	1,023407	2,492981
0,251000	1,094971	4,673004
0,252000	0,989990	4,999847
0,253000	0,943604	4,999847
0,254000	0,924225	4,999847
0,255000	0,916595	4,999847
0,256000	0,913086	4,999847
0,257000	0,912476	4,999847
0,258000	0,912170	4,999847
0,259000	0,912018	4,134369
0,260000	0,912170	4,883728
0,261000	0,913239	3,231659
0,262000	0,912170	4,995270
0,263000	0,912628	4,999847
0,264000	0,912476	4,999847
0,265000	0,912628	4,999847
0,266000	0,913391	4,999847
0,267000	0,913239	4,999847
0,268000	0,913849	4,423065
0,269000	1,010895	3,193207
0,270000	0,991974	4,013672
0,271000	0,990753	2,970886
0,272000	0,990295	4,999847
0,273000	0,802155	4,999847
0,274000	0,677795	4,999847
0,275000	0,650330	4,999847
0,276000	0,611115	4,999847
0,277000	0,629120	4,999847
0,278000	0,603943	4,999847
0,279000	0,624084	4,160156
0,280000	0,610046	4,564362
0,281000	0,620422	2,727051
0,282000	0,617065	4,748840
0,283000	0,618744	4,999847
0,284000	0,622559	4,999847
0,285000	0,615387	4,999847
0,286000	0,628357	4,999847
0,287000	0,613098	4,999847
0,288000	0,634003	4,208069
0,289000	0,610809	3,370667
0,290000	0,641022	4,573975
0,291000	0,608826	3,266449
0,292000	0,642700	4,999847
0,293000	0,614624	4,999847
0,294000	0,637817	4,999847
0,295000	0,622711	4,999847
0,296000	0,633392	4,999847
0,297000	0,630951	4,999847
0,298000	0,630035	4,629822
0,299000	0,638733	4,605713
0,300000	0,625916	3,789825
0,301000	0,646362	3,617859
0,302000	0,622101	4,999847
0,303000	0,653076	4,999847
0,304000	0,619202	4,999847
0,305000	0,660095	4,999847
0,306000	0,617065	4,999847
0,307000	0,658417	4,999847
0,308000	0,627594	4,768524
0,309000	0,652161	3,122711
0,310000	0,637970	2,108459
0,311000	0,646515	4,392853
0,312000	0,648041	4,999847
0,313000	0,641479	4,999847
0,314000	0,657349	4,999847
0,315000	0,637512	4,999847
0,316000	0,668182	4,999847
0,317000	0,634155	4,999847
0,318000	0,676422	4,999847
0,319000	0,630493	3,841858
0,320000	0,685425	4,236603
0,321000	0,634155	3,511353
0,322000	0,679626	4,716187
0,323000	0,653839	4,999847
0,324000	0,673828	4,999847
0,325000	0,664825	4,999847
0,326000	0,667877	4,999847
0,327000	0,676727	4,999847
0,328000	0,658722	4,850311
0,329000	0,685425	3,258820
0,330000	0,654144	3,341827
0,331000	0,685883	3,066711
0,332000	0,643768	4,999847
0,333000	0,704956	4,999847
0,334000	0,643921	4,999847
0,335000	0,607452	4,999847
0,336000	0,608673	4,999847
0,337000	0,678711	4,999847
0,338000	0,661621	4,999847
0,339000	0,684509	4,335480
0,340000	0,682831	2,543640
0,341000	0,677643	4,725494
0,342000	0,697937	4,771729
0,343000	0,670776	4,999847
0,344000	0,709076	4,999847
0,345000	0,663452	4,999847
0,346000	0,720520	4,999847
0,347000	0,657806	4,999847
0,348000	0,731659	4,418793
0,349000	0,653076	3,746643
0,350000	0,726929	2,292023
0,351000	0,671692	4,709778
0,352000	0,713806	4,999847
0,353000	0,689392	4,999847
0,354000	0,702515	4,999847
0,355000	0,704803	4,999847
0,356000	0,691376	4,999847
0,357000	0,718536	4,999847
0,358000	0,681915	4,999847
0,359000	0,731812	4,175110
0,360000	0,673370	3,361359
0,361000	0,743561	3,796082
0,362000	0,668793	4,763489
0,363000	0,755157	4,999847
0,364000	0,671387	4,999847
0,365000	0,742340	4,999847
0,366000	0,691223	4,999847
0,367000	0,725861	4,999847
0,368000	0,709839	4,646149
0,369000	0,714264	3,373108
0,370000	0,726624	3,028717
0,371000	0,701904	4,818726
0,372000	0,742798	4,999847
0,373000	0,694885	4,999847
0,374000	0,756836	4,999847
0,375000	0,685883	4,999847
0,376000	0,766754	4,999847
0,377000	0,679932	4,999847
0,378000	0,768433	4,999847
0,379000	0,693054	4,102936
0,380000	0,752258	3,661194
0,381000	0,715485	3,164368
0,382000	0,737152	4,206696
0,383000	0,737610	4,999847
0,384000	0,728912	4,999847
0,385000	0,750122	4,999847
0,386000	0,716400	4,999847
0,387000	0,764923	4,999847
0,388000	0,705872	4,735107
0,389000	0,778961	3,719482
0,390000	0,698395	2,885284
0,391000	0,793152	4,566956
0,392000	0,697327	4,766083
0,393000	0,788879	4,999847
0,394000	0,719299	4,999847
0,395000	0,770264	4,999847
0,396000	0,735626	4,999847
0,397000	0,753937	4,999847
0,398000	0,752258	4,999847
0,399000	0,744019	3,880463
0,400000	0,768585	3,968048
0,401000	0,728912	4,138031
0,402000	0,783234	4,065094
0,403000	0,721893	4,999847
0,404000	0,798187	4,999847
0,405000	0,711517	4,999847
0,406000	0,819855	4,999847
0,407000	0,709839	4,999847
0,408000	0,802460	4,859772
0,409000	0,734711	2,958374
0,410000	0,777130	3,746643
0,411000	0,760498	4,002991
0,412000	0,760040	4,999847
0,413000	0,781555	4,999847
0,414000	0,750885	4,999847
0,415000	0,799866	4,999847
0,416000	0,736389	4,999847
0,417000	0,817871	4,999847
0,418000	0,726929	4,999847
0,419000	0,833893	3,757172
0,420000	0,715027	3,523712
0,421000	0,843048	3,411713
0,422000	0,727539	3,976593
0,423000	0,820160	4,999847
0,424000	0,755920	4,999847
0,425000	0,798798	4,999847
0,426000	0,780640	4,999847
0,427000	0,779266	4,999847
0,428000	0,811615	4,746857
0,429000	0,758820	2,744446
0,430000	0,823822	3,714142
0,431000	0,751801	3,329468
0,432000	0,841522	4,999847
0,433000	0,742493	4,999847
0,434000	0,855560	4,999847
0,435000	0,730591	4,999847
0,436000	0,853424	4,999847
0,437000	0,726166	4,999847
0,438000	0,762482	4,999847
0,439000	0,741577	4,076080
0,440000	0,788879	2,993774
0,441000	0,803070	4,358215
0,442000	0,786896	3,576813
0,443000	0,832214	4,999847
0,444000	0,776062	4,999847
0,445000	0,853577	4,999847
0,446000	0,762482	4,999847
0,447000	0,870361	4,999847
0,448000	0,749969	4,999847
0,449000	0,883331	3,403473
0,450000	0,750122	3,133698
0,451000	0,863342	4,970398
0,452000	0,780182	4,665833
0,453000	0,850677	4,999847
0,454000	0,805511	4,999847
0,455000	0,815735	4,999847
0,456000	0,841064	4,999847
0,457000	0,809174	4,999847
0,458000	0,858917	4,999847
0,459000	0,795898	4,172363
0,460000	0,879211	3,332367
0,461000	0,769958	3,879852
0,462000	0,893097	4,017181
0,463000	0,765686	4,999847
0,464000	0,909576	4,999847
0,465000	0,782166	4,999847
0,466000	0,881348	4,999847
0,467000	0,812531	4,999847
0,468000	0,863495	4,933472
0,469000	0,843506	3,311005
0,470000	0,845642	3,062744
0,471000	0,870667	4,841919
0,472000	0,826721	4,999847
0,473000	0,892029	4,999847
0,474000	0,807190	4,999847
0,475000	0,911560	4,999847
0,476000	0,800476	4,999847
0,477000	0,927429	4,999847
0,478000	0,790405	4,999847
0,479000	0,925446	4,582214
0,480000	0,812531	4,618835
0,481000	0,899811	3,850098
0,482000	1,024323	4,264221
0,483000	0,867767	4,999847
0,484000	0,859985	4,999847
0,485000	0,848846	4,999847
0,486000	0,886383	4,999847
0,487000	0,829468	4,999847
0,488000	0,912323	4,754181
0,489000	0,830231	3,877258
0,490000	0,944519	3,523560
0,491000	0,809479	4,750824
0,492000	0,965271	4,999847
0,493000	0,801697	4,999847
0,494000	0,945740	4,999847
0,495000	0,837860	4,999847
0,496000	0,916748	4,999847
0,497000	0,875397	4,999847
0,498000	0,862427	4,900818
0,499000	0,887604	4,419861
0,500000	0,865021	4,057159
0,501000	0,923309	4,189606
0,502000	0,851593	4,433136
0,503000	0,944977	4,999847
0,504000	0,844421	4,999847
0,505000	0,972595	4,999847
0,506000	0,832520	4,999847
0,507000	0,989075	4,999847
0,508000	0,844421	4,212952
0,509000	0,946350	3,403168
0,510000	1,059570	4,198608
0,511000	0,894165	4,069824
0,512000	0,868378	4,999847
0,513000	0,912018	4,999847
0,514000	0,937195	4,999847
0,515000	0,891876	4,999847
0,516000	0,961304	4,999847
0,517000	0,875397	4,999847
0,518000	0,981293	4,806824
0,519000	0,859985	3,512115
0,520000	1,004333	2,796326
0,521000	0,841827	4,951477
0,522000	1,002502	4,677582
0,523000	0,868073	4,999847
0,524000	0,976868	4,999847
0,525000	0,912933	4,999847
0,526000	0,949097	4,999847
0,527000	0,939484	4,999847
0,528000	0,936432	4,819489
0,529000	0,970306	3,585358
0,530000	0,909424	3,966980
0,531000	0,992584	4,762726
0,532000	0,891266	4,999847
0,533000	1,018372	4,999847
0,534000	0,877228	4,999847
0,535000	1,038055	4,999847
0,536000	0,871887	4,999847
0,537000	1,023102	4,999847
0,538000	0,920563	4,999847
0,539000	0,993500	4,595947
0,540000	0,841522	4,079590
0,541000	0,927734	2,660065
0,542000	0,958099	4,540253
0,543000	0,936432	4,999847
0,544000	0,998688	4,999847
0,545000	0,922699	4,999847
0,546000	1,026154	4,999847
0,547000	0,908051	4,999847
0,548000	1,048431	4,089813
0,549000	0,896759	3,589020
0,550000	1,063995	2,971497
0,551000	1,105499	3,828430
0,552000	1,267242	4,999847
0,553000	1,162262	4,999847
0,554000	1,037140	4,999847
0,555000	0,911560	4,999847
0,556000	0,922241	4,999847
0,557000	0,950928	4,999847
0,558000	0,978546	4,684601
0,559000	1,035156	4,277191
0,560000	0,944366	3,636932
0,561000	1,053314	3,156433
0,562000	0,930328	4,999847
0,563000	1,076202	4,999847
0,564000	0,915985	4,999847
0,565000	1,078644	4,999847
0,566000	0,945282	4,999847
0,567000	1,051025	4,999847
0,568000	0,986633	4,477386
0,569000	1,028595	3,594208
0,570000	1,010437	2,402649
0,571000	1,000061	4,551239
0,572000	0,963135	4,999847
0,573000	0,923309	4,999847
0,574000	1,012573	4,999847
0,575000	0,926666	4,999847
0,576000	1,025696	4,999847
0,577000	0,925446	4,999847
0,578000	1,130066	4,999847
0,579000	0,916901	4,999847
0,580000	1,107330	4,043732
0,581000	0,960541	2,945862
0,582000	1,040955	4,766693
0,583000	1,022034	4,999847
0,584000	1,045227	4,999847
0,585000	1,056213	4,999847
0,586000	0,986938	4,999847
0,587000	1,084290	4,999847
0,588000	0,973663	4,685974
0,589000	1,067963	4,456787
0,590000	0,956268	3,818817
0,591000	1,086578	3,125916
0,592000	0,949097	4,999847
0,593000	1,112518	4,999847
0,594000	0,968628	4,999847
0,595000	1,099854	4,999847
0,596000	0,999603	4,999847
0,597000	1,066895	4,999847
0,598000	1,031036	4,999847
0,599000	1,043549	4,892426
0,600000	1,066742	2,869720
0,601000	1,024933	4,189453
0,602000	1,094666	3,306122
0,603000	1,009521	4,999847
0,604000	1,115417	4,999847
0,605000	0,995789	4,999847
0,606000	1,142120	4,999847
0,607000	0,985718	4,999847
0,608000	1,149445	4,546356
0,609000	1,006317	3,852386
0,610000	1,120911	2,954865
0,611000	1,040955	4,381256
0,612000	1,096039	4,850464
0,613000	1,073151	4,999847
0,614000	1,074982	4,999847
0,615000	1,102142	4,999847
0,616000	1,055450	4,999847
0,617000	1,132812	4,999847
0,618000	1,041718	4,999847
0,619000	1,157532	4,445496
0,620000	1,026001	3,050079
0,621000	1,175842	4,861908
0,622000	1,011047	3,880463
0,623000	1,168365	4,999847
0,624000	1,045990	4,999847
0,625000	1,143494	4,999847
0,626000	1,079559	4,999847
0,627000	1,118927	4,999847
0,628000	1,109924	4,849243
0,629000	1,096649	3,790436
0,630000	1,139374	2,320862
0,631000	1,077728	4,389954
0,632000	1,167908	4,999847
0,633000	1,082916	4,999847
0,634000	1,225281	4,999847
0,635000	1,074524	4,999847
0,636000	1,238708	4,999847
0,637000	1,073456	4,999847
0,638000	1,208649	4,999847
0,639000	1,109772	4,240112
0,640000	1,178894	2,273712
0,641000	1,137848	4,999847
0,642000	1,078949	3,754730
0,643000	1,009979	4,999847
0,644000	1,060486	4,999847
0,645000	1,081696	4,999847
0,646000	1,108551	4,999847
0,647000	1,235504	4,999847
0,648000	1,079102	4,849701
0,649000	1,224213	4,243011
0,650000	1,076813	2,827301
0,651000	1,180420	3,534088
0,652000	1,029053	4,479218
0,653000	1,080475	4,999847
0,654000	1,067352	4,999847
0,655000	1,062775	4,999847
0,656000	1,094513	4,999847
0,657000	1,049042	4,999847
0,658000	1,120911	4,999847
0,659000	1,029205	4,509430
0,660000	1,133575	3,389435
0,661000	1,012115	4,228058
0,662000	1,144867	3,732147
0,663000	1,001129	4,999847
0,664000	1,125946	4,999847
0,665000	1,020508	4,999847
0,666000	1,092529	4,999847
0,667000	1,053772	4,999847
0,668000	1,078186	4,999847
0,669000	1,085052	3,397522
0,670000	1,058044	3,281860
0,671000	1,111450	4,781036
0,672000	1,042480	4,444885
0,673000	1,123657	4,999847
0,674000	1,027985	4,999847
0,675000	1,131439	4,999847
0,676000	1,015015	4,999847
0,677000	1,133118	4,999847
0,678000	1,006165	4,999847
0,679000	1,109619	3,381958
0,680000	1,041565	3,290710
0,681000	1,087036	3,781738
0,682000	1,076355	3,776703
0,683000	1,069183	4,999847
0,684000	1,102295	4,999847
0,685000	1,053314	4,999847
0,686000	1,121979	4,999847
0,687000	1,040192	4,999847
0,688000	1,129303	4,855194
0,689000	1,028442	3,630676
0,690000	0,962830	3,786469
0,691000	0,934296	3,134918
0,692000	0,922089	4,709167
0,693000	0,916901	4,999847
0,694000	0,914459	4,999847
0,695000	0,913086	4,999847
0,696000	0,912933	4,999847
0,697000	0,913086	4,999847
0,698000	0,912628	4,999847
0,699000	0,912628	4,597321
0,700000	0,912323	2,742615
0,701000	0,912323	4,550171
0,702000	0,912476	3,363800
0,703000	0,912018	4,999847
0,704000	0,912170	4,999847
0,705000	0,912018	4,999847
0,706000	0,912323	4,999847
0,707000	0,911865	4,999847
0,708000	0,911713	4,680023
0,709000	0,911865	3,778534
0,710000	0,909576	4,617615
0,711000	0,716858	3,473511
0,712000	0,609436	4,860687
0,713000	0,592346	4,999847
0,714000	0,556641	4,999847
0,715000	0,566711	4,999847
0,716000	0,552368	4,999847
0,717000	0,559692	4,999847
0,718000	0,555725	4,994659
0,719000	0,556793	3,459473
0,720000	0,560608	2,792816
0,721000	0,554504	3,639374
0,722000	0,565796	3,227997
0,723000	0,552673	4,999847
0,724000	0,571289	4,999847
0,725000	0,550690	4,999847
0,726000	0,576630	4,999847
0,727000	0,549011	4,999847
0,728000	0,578308	4,579315
0,729000	0,554657	2,710114
0,730000	0,574493	4,999847
0,731000	0,561981	2,928162
0,732000	0,570831	4,103394
0,733000	0,568695	4,999847
0,734000	0,567474	4,999847
0,735000	0,575714	4,999847
0,736000	0,564117	4,999847
0,737000	0,582275	4,999847
0,738000	0,561218	4,805450
0,739000	0,587006	4,538574
0,740000	0,557556	3,296051
0,741000	0,579529	3,520660
0,742000	0,550842	2,790833
0,743000	0,590057	4,999847
0,744000	0,565338	4,999847
0,745000	0,508423	4,999847
0,746000	0,541382	4,999847
0,747000	0,568085	4,999847
0,748000	0,577545	4,999847
0,749000	0,574799	3,833160
0,750000	0,590668	3,736115
0,751000	0,573120	3,988800
0,752000	0,599213	4,207306
0,753000	0,569153	4,999847
0,754000	0,606842	4,999847
0,755000	0,565643	4,999847
0,756000	0,614014	4,999847
0,757000	0,569305	4,999847
0,758000	0,607300	4,999847
0,759000	0,580139	3,822479
0,760000	0,600433	4,106750
0,761000	0,590820	3,789978
0,762000	0,594482	3,962097
0,763000	0,601196	4,999847
0,764000	0,588379	4,999847
0,765000	0,610199	4,999847
0,766000	0,583801	4,999847
0,767000	0,619965	4,999847
0,768000	0,578918	4,284210
0,769000	0,628510	3,444824
0,770000	0,576477	4,191742
0,771000	0,634766	3,297729
0,772000	0,586853	4,999847
0,773000	0,625610	4,999847
0,774000	0,599518	4,999847
0,775000	0,617065	4,999847
0,776000	0,611572	4,999847
0,777000	0,609436	4,999847
0,778000	0,623016	4,999847
0,779000	0,602570	3,627167
0,780000	0,633392	4,784088
0,781000	0,595703	3,926239
0,782000	0,643158	4,340668
0,783000	0,590210	4,999847
0,784000	0,653076	4,999847
0,785000	0,586395	4,999847
0,786000	0,648956	4,999847
0,787000	0,601501	4,999847
0,788000	0,638275	4,669342
0,789000	0,603638	4,023437
0,790000	0,623627	4,376831
0,791000	0,627136	2,402954
0,792000	0,619049	4,999847
0,793000	0,641022	4,999847
0,794000	0,611572	4,999847
0,795000	0,653076	4,999847
0,796000	0,604553	4,999847
0,797000	0,663910	4,999847
0,798000	0,597839	4,944153
0,799000	0,674286	4,524841
0,800000	0,600586	3,695831
0,801000	0,662689	4,477844
0,802000	0,617371	3,824768
0,803000	0,650940	4,999847
0,804000	0,616608	4,999847
0,805000	0,632782	4,999847
0,806000	0,645142	4,999847
0,807000	0,628815	4,999847
0,808000	0,661163	4,781342
0,809000	0,621033	3,599701
0,810000	0,674133	3,617096
0,811000	0,612946	4,939423
0,812000	0,686340	4,888458
0,813000	0,605927	4,999847
0,814000	0,690765	4,999847
0,815000	0,616760	4,999847
0,816000	0,675964	4,999847
0,817000	0,634918	4,999847
0,818000	0,662537	4,639435
0,819000	0,652161	4,033508
0,820000	0,650177	3,921204
0,821000	0,667725	3,848114
0,822000	0,639496	3,994751
0,823000	0,682526	4,999847
0,824000	0,629883	4,999847
0,825000	0,695953	4,999847
0,826000	0,620728	4,999847
0,827000	0,708466	4,999847
0,828000	0,613251	4,340973
0,829000	0,704193	4,207916
0,830000	0,634003	3,488464
0,831000	0,688171	3,202667
0,832000	0,653534	4,999847
0,833000	0,673523	4,999847
0,834000	0,672302	4,999847
0,835000	0,660400	4,999847
0,836000	0,689087	4,999847
0,837000	0,648956	4,999847
0,838000	0,704346	4,703369
0,839000	0,638428	4,980774
0,840000	0,718689	3,292084
0,841000	0,628815	3,813019
0,842000	0,731964	3,788147
0,843000	0,630035	4,999847
0,844000	0,717468	4,999847
0,845000	0,653076	4,999847
0,846000	0,700531	4,999847
0,847000	0,582886	4,999847
0,848000	0,638428	4,667816
0,849000	0,673676	3,752136
0,850000	0,662231	4,488373
0,851000	0,707550	3,179779
0,852000	0,656738	4,991455
0,853000	0,726776	4,999847
0,854000	0,646667	4,999847
0,855000	0,742493	4,999847
0,856000	0,637512	4,999847
0,857000	0,749817	4,999847
0,858000	0,648956	4,606476
0,859000	0,729828	4,869080
0,860000	0,673523	3,371735
0,861000	0,711670	4,036865
0,862000	0,695038	3,867798
0,863000	0,694885	4,999847
0,864000	0,715179	4,999847
0,865000	0,680237	4,999847
0,866000	0,733643	4,999847
0,867000	0,667267	4,999847
0,868000	0,750580	3,984680
0,869000	0,655670	4,575958
0,870000	0,766449	3,491364
0,871000	0,645294	3,247681
0,872000	0,762177	4,999847
0,873000	0,669708	4,999847
0,874000	0,741119	4,999847
0,875000	0,694580	4,999847
0,876000	0,722046	4,999847
0,877000	0,717316	4,999847
0,878000	0,705261	4,999847
0,879000	0,737915	4,461670
0,880000	0,690155	2,643127
0,881000	0,757294	4,495697
0,882000	0,676727	4,461517
0,883000	0,774384	4,999847
0,884000	0,664978	4,999847
0,885000	0,790558	4,999847
0,886000	0,664062	4,999847
0,887000	0,773773	4,999847
0,888000	0,692139	4,635315
0,889000	0,753021	4,403839
0,890000	0,717773	3,747406
0,891000	0,733185	3,615112
0,892000	0,741577	4,999847
0,893000	0,702515	4,999847
0,894000	0,749359	4,999847
0,895000	0,695190	4,999847
0,896000	0,779419	4,999847
0,897000	0,686340	4,999847
0,898000	0,799408	4,999847
0,899000	0,675354	4,501038
0,900000	0,811005	4,306641
0,901000	0,687866	3,650513
0,902000	0,786896	3,908844
0,903000	0,717163	4,999847
0,904000	0,764923	4,999847
0,905000	0,742950	4,999847
0,906000	0,745697	4,999847
0,907000	0,767059	4,999847
0,908000	0,728455	4,387665
0,909000	0,788574	3,820953
0,910000	0,713959	3,509369
0,911000	0,809021	4,160919
0,912000	0,700378	4,999847
0,913000	0,827026	4,999847
0,914000	0,688629	4,999847
0,915000	0,825043	4,999847
0,916000	0,715027	4,999847
0,917000	0,800781	4,999847
0,918000	0,744476	4,999847
0,919000	0,778656	4,598083
0,920000	0,753174	2,539215
0,921000	0,752258	4,999847
0,922000	0,792236	3,579559
0,923000	0,741577	4,999847
0,924000	0,816040	4,999847
0,925000	0,727692	4,999847
0,926000	0,836945	4,999847
0,927000	0,714569	4,999847
0,928000	0,854950	4,999847
0,929000	0,711975	4,368591
0,930000	0,839081	2,964478
0,931000	0,744019	3,892975
0,932000	0,814819	4,830780
0,933000	0,773315	4,999847
0,934000	0,793610	4,999847
0,935000	0,799713	4,999847
0,936000	0,774994	4,999847
0,937000	0,824127	4,999847
0,938000	0,758514	4,999847
0,939000	0,845490	4,562073
0,940000	0,744019	3,407288
0,941000	0,865479	2,935181
0,942000	0,731659	3,696136
0,943000	0,879822	4,502106
0,944000	0,742493	4,999847
0,945000	0,853577	4,999847
0,946000	0,774689	4,999847
0,947000	0,830383	4,999847
0,948000	0,803833	4,653778
0,949000	0,784607	4,529419
0,950000	0,765991	3,352203
0,951000	0,744476	3,526306
0,952000	0,834351	4,374847
0,953000	0,766907	4,999847
0,954000	0,872040	4,999847
0,955000	0,760651	4,999847
0,956000	0,895081	4,999847
0,957000	0,749664	4,999847
0,958000	0,895386	4,999847
0,959000	0,776062	4,048767
0,960000	0,870209	2,616730
0,961000	0,808105	4,847260
0,962000	0,847626	2,887726
0,963000	0,836334	4,999847
0,964000	0,827637	4,999847
0,965000	0,862427	4,999847
0,966000	0,810699	4,999847
0,967000	0,886078	4,999847
0,968000	0,795441	4,914093
0,969000	0,907440	3,956909
0,970000	0,782471	3,213501
0,971000	0,927277	4,999847
0,972000	0,776825	4,598694
0,973000	0,912170	4,999847
0,974000	0,811310	4,999847
0,975000	0,887909	4,999847
0,976000	0,842438	4,999847
0,977000	0,866394	4,999847
0,978000	0,870667	4,999847
0,979000	0,847473	3,770447
0,980000	0,895691	2,775421
0,981000	0,830841	3,927917
0,982000	0,919037	4,256744
0,983000	0,816498	4,999847
0,984000	0,939789	4,999847
0,985000	0,803986	4,999847
0,986000	0,957031	4,999847
0,987000	0,812378	4,999847
0,988000	0,930176	4,999847
0,989000	0,846710	4,091492
0,990000	0,906525	3,771515
0,991000	0,877228	4,038086
0,992000	0,885620	4,999847
0,993000	0,904388	4,999847
0,994000	0,867462	4,999847
0,995000	0,929260	4,999847
0,996000	0,852051	4,999847
0,997000	0,951843	4,999847
0,998000	0,838165	4,999847
0,999000	0,971832	4,303131

