LabVIEW Measurement	
Writer_Version	2
Reader_Version	2
Separator	Tab
Decimal_Separator	,
Multi_Headings	Yes
X_Columns	One
Time_Pref	Absolute
Operator	d.nicolai
Date	2023/11/09
Time	16:46:38,4425126999997713665
***End_of_Header***	
	
Channels	2		
Samples	1000	1000	
Date	2023/11/09	2023/11/09	
Time	16:46:38,4425126999997713665	16:46:38,4425126999997713665	
Y_Unit_Label	Volts	Volts	
X_Dimension	Time	Time	
X0	0,0000000000000000E+0	0,0000000000000000E+0	
Delta_X	0,001000	0,001000	
***End_of_Header***			
X_Value	powebox	triggerbox	Comment
0,000000	0,781708	0,861053
0,001000	0,657806	3,307343
0,002000	0,781403	3,399200
0,003000	0,675354	4,999847
0,004000	0,759277	4,999847
0,005000	0,703125	4,999847
0,006000	0,737915	4,999847
0,007000	0,725708	4,999847
0,008000	0,720215	4,999847
0,009000	0,747986	4,999847
0,010000	0,704498	4,938354
0,011000	0,768738	2,907104
0,012000	0,690613	4,999847
0,013000	0,787506	4,323425
0,014000	0,677948	4,999847
0,015000	0,805359	4,999847
0,016000	0,671082	4,999847
0,017000	0,795898	4,999847
0,018000	0,701599	4,999847
0,019000	0,771179	4,852448
0,020000	0,727539	3,890533
0,021000	0,751038	2,269745
0,022000	0,752106	3,843842
0,023000	0,733795	4,913788
0,024000	0,775146	4,999847
0,025000	0,718994	4,999847
0,026000	0,798035	4,999847
0,027000	0,706024	4,999847
0,028000	0,816956	4,999847
0,029000	0,693817	4,999847
0,030000	0,834351	4,862366
0,031000	0,699158	2,829590
0,032000	0,811005	4,443207
0,033000	0,729828	3,698425
0,034000	0,788422	4,999847
0,035000	0,757141	4,999847
0,036000	0,767822	4,999847
0,037000	0,782776	4,999847
0,038000	0,749817	4,999847
0,039000	0,805511	4,999847
0,040000	0,735321	3,462982
0,041000	0,827179	3,380585
0,042000	0,704346	3,579559
0,043000	0,800171	4,999847
0,044000	0,661316	4,999847
0,045000	0,831146	4,999847
0,046000	0,718842	4,999847
0,047000	0,820923	4,999847
0,048000	0,757904	4,999847
0,049000	0,801849	4,999847
0,050000	0,786896	4,220428
0,051000	0,783234	3,019562
0,052000	0,812683	4,129486
0,053000	0,765991	4,174805
0,054000	0,835266	4,999847
0,055000	0,750275	4,999847
0,056000	0,856018	4,999847
0,057000	0,738220	4,999847
0,058000	0,874786	4,999847
0,059000	0,727844	4,999847
0,060000	0,865173	4,267731
0,061000	0,761261	2,994080
0,062000	0,838470	3,074188
0,063000	0,780792	4,999847
0,064000	0,812836	4,999847
0,065000	0,812683	4,999847
0,066000	0,796356	4,999847
0,067000	0,839081	4,999847
0,068000	0,780334	4,999847
0,069000	0,862427	4,999847
0,070000	0,766296	4,168091
0,071000	0,884399	3,021240
0,072000	0,752106	4,685974
0,073000	0,900726	3,905029
0,074000	0,759735	4,999847
0,075000	0,877686	4,999847
0,076000	0,788879	4,999847
0,077000	0,854034	4,999847
0,078000	0,819397	4,999847
0,079000	0,833282	4,999847
0,080000	0,846100	4,223328
0,081000	0,814972	3,129883
0,082000	0,870819	4,222260
0,083000	0,798950	4,864044
0,084000	0,893097	4,999847
0,085000	0,784912	4,999847
0,086000	0,913239	4,999847
0,087000	0,773163	4,999847
0,088000	0,921936	4,999847
0,089000	0,791016	4,999847
0,090000	0,895844	3,920441
0,091000	0,824127	3,869324
0,092000	0,873108	4,997711
0,093000	0,853271	3,803253
0,094000	0,852509	4,999847
0,095000	0,880127	4,999847
0,096000	0,746918	4,999847
0,097000	0,867157	4,999847
0,098000	0,804291	4,999847
0,099000	0,919647	4,999847
0,100000	0,803833	3,773346
0,101000	0,945129	2,910919
0,102000	0,794983	3,558960
0,103000	0,939789	4,987640
0,104000	0,827942	4,999847
0,105000	0,914917	4,999847
0,106000	0,859985	4,999847
0,107000	0,892944	4,999847
0,108000	0,888977	4,999847
0,109000	0,865936	4,999847
0,110000	0,912628	4,061890
0,111000	0,856781	3,329773
0,112000	0,939789	4,999847
0,113000	0,843506	3,439026
0,114000	0,961304	4,999847
0,115000	0,830841	4,999847
0,116000	0,980377	4,999847
0,117000	0,831757	4,999847
0,118000	0,959625	4,999847
0,119000	0,866394	4,999847
0,120000	0,936127	3,465118
0,121000	0,898132	3,183899
0,122000	0,914917	4,629517
0,123000	0,926056	4,957123
0,124000	0,896912	4,999847
0,125000	0,951233	4,999847
0,126000	0,880432	4,999847
0,127000	0,974884	4,999847
0,128000	0,866394	4,999847
0,129000	0,991669	4,999847
0,130000	0,852203	4,892426
0,131000	1,002502	3,839417
0,132000	0,866699	4,715118
0,133000	0,976868	3,747559
0,134000	0,904236	4,999847
0,135000	0,952759	4,999847
0,136000	0,930328	4,999847
0,137000	0,935516	4,999847
0,138000	0,957031	4,999847
0,139000	0,914307	4,999847
0,140000	0,981903	4,233856
0,141000	0,899811	3,199615
0,142000	1,004791	3,141327
0,143000	0,887604	4,976654
0,144000	1,026917	4,999847
0,145000	0,876160	4,999847
0,146000	1,023407	4,999847
0,147000	0,907288	4,999847
0,148000	0,998840	4,999847
0,149000	0,939789	4,999847
0,150000	0,976868	4,411163
0,151000	0,970001	3,830109
0,152000	0,957184	4,999847
0,153000	0,996246	3,800659
0,154000	0,940857	4,999847
0,155000	1,019897	4,999847
0,156000	0,925751	4,999847
0,157000	1,042175	4,999847
0,158000	0,913391	4,999847
0,159000	1,063538	4,999847
0,160000	0,911255	4,020386
0,161000	1,046143	3,399811
0,162000	0,946503	3,838959
0,163000	1,021729	4,830627
0,164000	0,976868	4,999847
0,165000	1,000214	4,999847
0,166000	1,005096	4,999847
0,167000	0,981903	4,999847
0,168000	1,031494	4,999847
0,169000	0,965576	4,999847
0,170000	1,055450	4,690552
0,171000	0,951080	3,721924
0,172000	1,078491	3,821869
0,173000	0,938110	3,236389
0,174000	1,092072	4,999847
0,175000	0,949860	4,999847
0,176000	1,065521	4,999847
0,177000	0,983429	4,999847
0,178000	1,042633	4,999847
0,179000	1,013794	4,943390
0,180000	1,021729	4,076233
0,181000	1,040802	3,319397
0,182000	1,002960	2,337646
0,183000	1,067047	4,537659
0,184000	0,986176	4,999847
0,185000	1,090393	4,999847
0,186000	0,971985	4,999847
0,187000	1,109161	4,999847
0,188000	0,958862	4,999847
0,189000	1,102905	4,999847
0,190000	0,985870	4,672546
0,191000	1,078033	3,776398
0,192000	1,013947	4,300079
0,193000	1,051941	3,539429
0,194000	1,044464	4,999847
0,195000	1,032410	4,999847
0,196000	1,061554	4,999847
0,197000	1,014709	4,999847
0,198000	1,020660	4,999847
0,199000	0,950165	4,763031
0,200000	1,098175	4,112396
0,201000	0,982819	3,593597
0,202000	1,126099	3,982086
0,203000	0,979462	4,999847
0,204000	1,103516	4,999847
0,205000	1,014404	4,999847
0,206000	1,079865	4,999847
0,207000	1,047211	4,999847
0,208000	1,059265	4,999847
0,209000	1,074066	4,999847
0,210000	1,040802	4,225922
0,211000	1,100006	3,987122
0,212000	1,021881	4,630585
0,213000	1,111450	4,591522
0,214000	1,005402	4,999847
0,215000	1,125946	4,999847
0,216000	0,993805	4,999847
0,217000	1,125488	4,999847
0,218000	1,002045	4,999847
0,219000	1,095581	4,999847
0,220000	1,037140	4,654846
0,221000	1,074829	3,248901
0,222000	1,069489	2,707977
0,223000	1,056976	4,999847
0,224000	1,098785	4,999847
0,225000	1,041412	4,999847
0,226000	1,119385	4,999847
0,227000	1,027527	4,999847
0,228000	1,128845	4,999847
0,229000	1,015625	4,999847
0,230000	1,131897	4,102173
0,231000	1,004486	3,366241
0,232000	1,117706	4,252167
0,233000	1,028900	4,530334
0,234000	1,094055	4,999847
0,235000	1,066437	4,999847
0,236000	1,076660	4,999847
0,237000	1,096039	4,999847
0,238000	1,059418	4,999847
0,239000	1,119843	4,999847
0,240000	1,045380	4,999847
0,241000	0,970459	3,305817
0,242000	0,938110	4,178925
0,243000	0,923920	4,999847
0,244000	0,918121	4,999847
0,245000	0,915680	4,999847
0,246000	0,914459	4,999847
0,247000	0,913849	4,999847
0,248000	0,913239	4,999847
0,249000	0,913391	4,999847
0,250000	0,913391	4,999847
0,251000	0,913239	3,394775
0,252000	0,913544	4,552765
0,253000	0,913391	4,278717
0,254000	0,913086	4,999847
0,255000	0,913086	4,999847
0,256000	0,913239	4,999847
0,257000	0,912933	4,999847
0,258000	0,913391	4,999847
0,259000	0,913239	4,992676
0,260000	0,739136	4,398956
0,261000	0,601044	2,964935
0,262000	0,586853	3,447571
0,263000	0,556793	4,999847
0,264000	0,572968	4,999847
0,265000	0,549469	4,999847
0,266000	0,568085	4,999847
0,267000	0,554047	4,999847
0,268000	0,565491	4,999847
0,269000	0,560150	4,999847
0,270000	0,563049	4,449310
0,271000	0,566254	3,164825
0,272000	0,561523	4,205780
0,273000	0,572815	4,482880
0,274000	0,580292	4,999847
0,275000	0,575104	4,999847
0,276000	0,555115	4,999847
0,277000	0,580292	4,999847
0,278000	0,552979	4,999847
0,279000	0,584259	4,856262
0,280000	0,557251	4,217529
0,281000	0,580292	2,557068
0,282000	0,565033	3,154449
0,283000	0,576477	4,999847
0,284000	0,571899	4,999847
0,285000	0,572510	4,999847
0,286000	0,579376	4,999847
0,287000	0,569153	4,999847
0,288000	0,586090	4,999847
0,289000	0,565948	4,999847
0,290000	0,592651	4,999847
0,291000	0,563049	3,398132
0,292000	0,599060	4,999847
0,293000	0,560150	4,256897
0,294000	0,599060	4,333801
0,295000	0,568695	4,999847
0,296000	0,593567	4,999847
0,297000	0,578003	4,999847
0,298000	0,587921	4,999847
0,299000	0,586853	4,999847
0,300000	0,583038	4,042969
0,301000	0,536804	2,867432
0,302000	0,554352	3,304443
0,303000	0,593414	4,928741
0,304000	0,570984	4,999847
0,305000	0,609589	4,999847
0,306000	0,570526	4,999847
0,307000	0,619049	4,999847
0,308000	0,571289	4,999847
0,309000	0,614166	4,999847
0,310000	0,582886	4,935455
0,311000	0,607147	3,196411
0,312000	0,593872	4,944153
0,313000	0,600586	3,160095
0,314000	0,596466	4,908752
0,315000	0,579529	4,999847
0,316000	0,607452	4,999847
0,317000	0,586090	4,999847
0,318000	0,621490	4,999847
0,319000	0,582886	4,999847
0,320000	0,631256	3,579102
0,321000	0,578308	2,421722
0,322000	0,637360	3,724976
0,323000	0,584106	4,999847
0,324000	0,628204	4,999847
0,325000	0,597687	4,999847
0,326000	0,619049	4,999847
0,327000	0,609894	4,999847
0,328000	0,611572	4,999847
0,329000	0,621338	4,999847
0,330000	0,604095	4,999847
0,331000	0,632172	3,140106
0,332000	0,597687	4,385071
0,333000	0,642700	3,603363
0,334000	0,591888	4,897614
0,335000	0,652466	4,999847
0,336000	0,586548	4,999847
0,337000	0,652466	4,999847
0,338000	0,598907	4,999847
0,339000	0,641022	4,999847
0,340000	0,613251	4,719086
0,341000	0,631256	2,676544
0,342000	0,627441	3,610687
0,343000	0,622711	4,836731
0,344000	0,639801	4,999847
0,345000	0,613403	4,999847
0,346000	0,651550	4,999847
0,347000	0,606079	4,999847
0,348000	0,662079	4,999847
0,349000	0,598907	4,999847
0,350000	0,672760	4,407501
0,351000	0,596924	3,740692
0,352000	0,665588	4,072723
0,353000	0,614319	3,576050
0,354000	0,653229	4,999847
0,355000	0,630493	4,999847
0,356000	0,642242	4,999847
0,357000	0,644836	4,999847
0,358000	0,631409	4,999847
0,359000	0,659180	4,999847
0,360000	0,621948	4,191284
0,361000	0,671997	2,604523
0,362000	0,613861	3,704376
0,363000	0,684204	4,628601
0,364000	0,606232	4,999847
0,365000	0,693817	4,999847
0,366000	0,612640	4,999847
0,367000	0,648346	4,999847
0,368000	0,618286	4,999847
0,369000	0,659485	4,999847
0,370000	0,646210	4,299011
0,371000	0,651550	3,420258
0,372000	0,664368	3,944550
0,373000	0,641327	3,451080
0,374000	0,679626	4,999847
0,375000	0,631409	4,999847
0,376000	0,693817	4,999847
0,377000	0,621796	4,999847
0,378000	0,706635	4,999847
0,379000	0,613403	4,999847
0,380000	0,708466	3,694916
0,381000	0,629425	2,752686
0,382000	0,691528	4,217224
0,383000	0,650330	4,756012
0,384000	0,676575	4,999847
0,385000	0,669250	4,999847
0,386000	0,662994	4,999847
0,387000	0,686035	4,999847
0,388000	0,651093	4,999847
0,389000	0,701904	4,999847
0,390000	0,639954	4,742584
0,391000	0,716705	3,708801
0,392000	0,630188	4,125061
0,393000	0,730133	3,410492
0,394000	0,625153	4,999847
0,395000	0,720978	4,999847
0,396000	0,648651	4,999847
0,397000	0,703430	4,999847
0,398000	0,670013	4,999847
0,399000	0,687408	4,999847
0,400000	0,689850	4,553680
0,401000	0,672760	2,937622
0,402000	0,707703	4,439240
0,403000	0,577087	4,138031
0,404000	0,689240	4,999847
0,405000	0,634003	4,999847
0,406000	0,733948	4,999847
0,407000	0,635986	4,999847
0,408000	0,751953	4,999847
0,409000	0,643158	4,999847
0,410000	0,733337	4,330597
0,411000	0,652313	3,513794
0,412000	0,707855	4,999847
0,413000	0,688324	3,445282
0,414000	0,696716	4,999847
0,415000	0,710754	4,999847
0,416000	0,682678	4,999847
0,417000	0,730896	4,999847
0,418000	0,669250	4,999847
0,419000	0,747375	4,999847
0,420000	0,657501	4,502411
0,421000	0,763702	3,043518
0,422000	0,647430	4,999847
0,423000	0,766296	4,642639
0,424000	0,664368	4,999847
0,425000	0,744781	4,999847
0,426000	0,689545	4,999847
0,427000	0,725403	4,999847
0,428000	0,712738	4,999847
0,429000	0,708008	4,999847
0,430000	0,733948	4,999847
0,431000	0,679016	3,892365
0,432000	0,747833	4,355011
0,433000	0,676270	2,864990
0,434000	0,770264	4,999847
0,435000	0,665894	4,999847
0,436000	0,787201	4,999847
0,437000	0,658417	4,999847
0,438000	0,778198	4,999847
0,439000	0,686646	4,999847
0,440000	0,756226	4,174652
0,441000	0,712738	2,859650
0,442000	0,735931	3,092499
0,443000	0,736389	4,972382
0,444000	0,718689	4,999847
0,445000	0,758514	4,999847
0,446000	0,703430	4,999847
0,447000	0,778351	4,999847
0,448000	0,689392	4,999847
0,449000	0,796509	4,999847
0,450000	0,677795	4,999847
0,451000	0,812836	3,874969
0,452000	0,681915	3,703156
0,453000	0,791168	3,264008
0,454000	0,711517	4,999847
0,455000	0,768890	4,999847
0,456000	0,738678	4,999847
0,457000	0,749207	4,999847
0,458000	0,762634	4,999847
0,459000	0,731812	4,999847
0,460000	0,785370	4,734955
0,461000	0,716400	2,778778
0,462000	0,805511	4,203644
0,463000	0,702972	4,999847
0,464000	0,823975	4,999847
0,465000	0,690918	4,999847
0,466000	0,829773	4,999847
0,467000	0,709076	4,999847
0,468000	0,804901	4,999847
0,469000	0,739136	4,999847
0,470000	0,782776	4,712372
0,471000	0,765839	3,813782
0,472000	0,763397	4,758148
0,473000	0,790558	3,655243
0,474000	0,746002	4,999847
0,475000	0,812988	4,999847
0,476000	0,731049	4,999847
0,477000	0,833740	4,999847
0,478000	0,717621	4,999847
0,479000	0,852356	4,999847
0,480000	0,707245	4,171753
0,481000	0,811005	2,994995
0,482000	0,725098	3,147583
0,483000	0,813904	4,994965
0,484000	0,766449	4,999847
0,485000	0,797119	4,999847
0,486000	0,795593	4,999847
0,487000	0,778503	4,999847
0,488000	0,820007	4,999847
0,489000	0,762024	4,999847
0,490000	0,842896	4,999847
0,491000	0,747986	3,679657
0,492000	0,863037	4,981689
0,493000	0,734863	3,489227
0,494000	0,881653	4,999847
0,495000	0,737610	4,999847
0,496000	0,859528	4,999847
0,497000	0,770416	4,999847
0,498000	0,835724	4,999847
0,499000	0,800018	4,505005
0,500000	0,814514	4,999847
0,501000	0,826874	3,236389
0,502000	0,796661	2,460480
0,503000	0,851288	4,944611
0,504000	0,780334	4,999847
0,505000	0,832214	4,999847
0,506000	0,693359	4,999847
0,507000	0,639038	4,999847
0,508000	0,616302	4,999847
0,509000	0,611420	4,999847
0,510000	0,714111	4,999847
0,511000	0,785217	3,880920
0,512000	0,822296	4,677887
0,513000	0,800629	3,692474
0,514000	0,861053	4,999847
0,515000	0,789948	4,999847
0,516000	0,885162	4,999847
0,517000	0,776825	4,999847
0,518000	0,904846	4,999847
0,519000	0,764923	4,999847
0,520000	0,913391	4,904633
0,521000	0,783234	3,011169
0,522000	0,887451	3,267822
0,523000	0,816040	4,647064
0,524000	0,864410	4,999847
0,525000	0,845337	4,999847
0,526000	0,844269	4,999847
0,527000	0,872040	4,999847
0,528000	0,827026	4,999847
0,529000	0,895538	4,999847
0,530000	0,811310	4,999847
0,531000	0,917816	3,777161
0,532000	0,798645	4,783936
0,533000	0,937500	4,044800
0,534000	0,787201	4,999847
0,535000	0,930786	4,999847
0,536000	0,819702	4,999847
0,537000	0,905914	4,999847
0,538000	0,851746	4,999847
0,539000	0,883942	4,868774
0,540000	0,879974	4,999847
0,541000	0,864410	2,914276
0,542000	0,905762	2,121735
0,543000	0,847626	4,908600
0,544000	0,929413	4,999847
0,545000	0,833435	4,999847
0,546000	0,950775	4,999847
0,547000	0,820770	4,999847
0,548000	0,970306	4,999847
0,549000	0,821838	4,999847
0,550000	0,949097	4,999847
0,551000	0,856323	3,660278
0,552000	0,924835	3,786469
0,553000	0,886688	3,678131
0,554000	0,903778	4,448090
0,555000	0,914612	4,999847
0,556000	0,885010	4,999847
0,557000	0,940094	4,999847
0,558000	0,869446	4,999847
0,559000	0,962982	4,728394
0,560000	0,855408	4,372864
0,561000	0,983734	3,021545
0,562000	0,843353	2,934570
0,563000	0,993958	4,999847
0,564000	0,859070	4,999847
0,565000	0,967407	4,999847
0,566000	0,892487	4,999847
0,567000	0,944519	4,999847
0,568000	0,923004	4,999847
0,569000	0,924530	4,999847
0,570000	0,933075	4,999847
0,571000	0,899506	2,657471
0,572000	0,971375	4,757385
0,573000	0,890350	3,750153
0,574000	0,996246	4,774170
0,575000	0,877838	4,999847
0,576000	1,016846	4,999847
0,577000	0,866394	4,999847
0,578000	1,012421	4,999847
0,579000	0,896606	4,999847
0,580000	0,987091	4,890900
0,581000	0,929108	2,393036
0,582000	0,964661	2,709656
0,583000	0,958557	4,999847
0,584000	0,945587	4,999847
0,585000	0,984802	4,999847
0,586000	0,929260	4,999847
0,587000	1,008911	4,999847
0,588000	0,914764	4,999847
0,589000	1,030731	4,999847
0,590000	0,902252	4,999847
0,591000	1,051788	3,455353
0,592000	0,900574	4,987640
0,593000	1,034088	3,025360
0,594000	0,935211	4,823608
0,595000	1,009979	4,999847
0,596000	0,966949	4,999847
0,597000	0,988312	4,999847
0,598000	0,995178	4,999847
0,599000	0,970306	4,999847
0,600000	1,020813	4,780579
0,601000	0,954285	2,230072
0,602000	1,044769	3,101959
0,603000	0,940247	4,569244
0,604000	1,067047	4,999847
0,605000	0,928040	4,999847
0,606000	1,081238	4,999847
0,607000	0,940704	4,999847
0,608000	0,958557	4,999847
0,609000	0,933685	4,999847
0,610000	1,012726	4,999847
0,611000	0,995636	3,305359
0,612000	1,007538	4,772491
0,613000	1,030121	3,415070
0,614000	0,992584	4,999847
0,615000	1,056824	4,999847
0,616000	0,976868	4,999847
0,617000	1,079254	4,999847
0,618000	0,962372	4,999847
0,619000	1,099243	4,999847
0,620000	0,950317	4,378204
0,621000	1,093903	2,834167
0,622000	0,976715	2,839203
0,623000	1,068115	4,999847
0,624000	1,008301	4,999847
0,625000	1,045990	4,999847
0,626000	1,037445	4,999847
0,627000	1,025848	4,999847
0,628000	1,064758	4,999847
0,629000	1,008301	4,999847
0,630000	1,088562	4,999847
0,631000	0,992584	3,075256
0,632000	1,107788	4,999847
0,633000	0,979309	3,217621
0,634000	1,119537	4,798279
0,635000	0,972748	4,999847
0,636000	1,096649	4,999847
0,637000	1,007233	4,999847
0,638000	1,072388	4,999847
0,639000	1,037445	4,999847
0,640000	1,051636	4,588928
0,641000	1,067657	2,878571
0,642000	1,033936	4,060669
0,643000	1,093140	4,024506
0,644000	1,017456	4,999847
0,645000	1,113281	4,999847
0,646000	1,003265	4,999847
0,647000	1,124573	4,999847
0,648000	0,991821	4,999847
0,649000	1,124573	4,999847
0,650000	1,001282	4,999847
0,651000	1,094208	3,526917
0,652000	1,035004	4,311981
0,653000	1,073151	3,523712
0,654000	1,067200	4,372711
0,655000	1,055145	4,999847
0,656000	1,095428	4,999847
0,657000	1,039124	4,999847
0,658000	1,117096	4,999847
0,659000	1,025696	4,999847
0,660000	1,127319	4,445190
0,661000	1,012573	2,987061
0,662000	1,131134	3,945160
0,663000	1,002197	4,565125
0,664000	1,116638	4,999847
0,665000	1,027069	4,999847
0,666000	1,091766	4,999847
0,667000	1,062164	4,999847
0,668000	1,073151	4,999847
0,669000	1,084290	4,999847
0,670000	1,057739	4,999847
0,671000	1,117249	4,153595
0,672000	1,043701	3,785248
0,673000	1,128998	3,619843
0,674000	1,031189	4,999847
0,675000	1,132660	4,999847
0,676000	1,021118	4,999847
0,677000	0,960388	4,999847
0,678000	0,934753	4,999847
0,679000	0,922852	4,999847
0,680000	0,918732	4,813995
0,681000	0,915985	2,543182
0,682000	0,914612	4,721527
0,683000	0,914001	4,999847
0,684000	0,914001	4,999847
0,685000	0,913086	4,999847
0,686000	0,912781	4,999847
0,687000	0,912628	4,999847
0,688000	0,912628	4,999847
0,689000	0,912476	4,999847
0,690000	0,912628	4,976807
0,691000	0,912933	3,542328
0,692000	0,912323	4,027863
0,693000	0,912628	2,809143
0,694000	0,912170	4,691772
0,695000	0,912018	4,999847
0,696000	0,912170	4,999847
0,697000	0,911713	4,999847
0,698000	0,776367	4,999847
0,699000	0,653992	4,999847
0,700000	0,605927	4,341431
0,701000	0,573883	3,236542
0,702000	0,576935	3,163452
0,703000	0,558167	4,421844
0,704000	0,574951	4,999847
0,705000	0,554047	4,999847
0,706000	0,578003	4,999847
0,707000	0,554504	4,999847
0,708000	0,575104	4,999847
0,709000	0,560608	4,999847
0,710000	0,513000	4,999847
0,711000	0,525818	4,205627
0,712000	0,552063	4,388123
0,713000	0,565796	3,394928
0,714000	0,558777	4,999847
0,715000	0,573120	4,999847
0,716000	0,559235	4,999847
0,717000	0,579681	4,999847
0,718000	0,557404	4,999847
0,719000	0,585327	4,999847
0,720000	0,555420	4,547729
0,721000	0,587921	3,411407
0,722000	0,559540	2,983856
0,723000	0,582886	4,798126
0,724000	0,567474	4,999847
0,725000	0,578766	4,999847
0,726000	0,574951	4,999847
0,727000	0,573883	4,999847
0,728000	0,581512	4,999847
0,729000	0,569916	4,999847
0,730000	0,588531	4,999847
0,731000	0,566559	3,988037
0,732000	0,595398	4,017181
0,733000	0,563354	3,348389
0,734000	0,601807	4,999847
0,735000	0,560455	4,905090
0,736000	0,601044	4,999847
0,737000	0,570068	4,999847
0,738000	0,594025	4,999847
0,739000	0,579376	4,999847
0,740000	0,588379	4,396210
0,741000	0,588684	3,089752
0,742000	0,583344	2,996521
0,743000	0,597534	4,247284
0,744000	0,578766	4,999847
0,745000	0,606232	4,999847
0,746000	0,574646	4,999847
0,747000	0,613708	4,999847
0,748000	0,570526	4,999847
0,749000	0,621185	4,999847
0,750000	0,571442	4,999847
0,751000	0,614929	4,564819
0,752000	0,583496	3,786926
0,753000	0,607300	3,716125
0,754000	0,594940	4,812775
0,755000	0,600586	4,999847
0,756000	0,605164	4,999847
0,757000	0,593719	4,999847
0,758000	0,615082	4,999847
0,759000	0,587921	4,999847
0,760000	0,624695	4,999847
0,761000	0,582581	3,686218
0,762000	0,633392	3,668060
0,763000	0,577240	4,503632
0,764000	0,638275	4,999847
0,765000	0,584717	4,999847
0,766000	0,628357	4,999847
0,767000	0,598145	4,999847
0,768000	0,618744	4,999847
0,769000	0,610809	4,999847
0,770000	0,610657	4,999847
0,771000	0,622253	3,731079
0,772000	0,603180	4,532776
0,773000	0,633698	3,928833
0,774000	0,596313	4,249268
0,775000	0,644073	4,999847
0,776000	0,590057	4,999847
0,777000	0,653992	4,999847
0,778000	0,584412	4,999847
0,779000	0,652008	4,999847
0,780000	0,599060	4,999847
0,781000	0,640564	3,387604
0,782000	0,614014	3,893738
0,783000	0,630188	4,999847
0,784000	0,628052	4,999847
0,785000	0,620422	4,999847
0,786000	0,641022	4,999847
0,787000	0,611877	4,999847
0,788000	0,652924	4,999847
0,789000	0,604553	4,999847
0,790000	0,664215	4,999847
0,791000	0,597534	4,022980
0,792000	0,675201	3,415375
0,793000	0,597382	4,999847
0,794000	0,665741	4,363556
0,795000	0,615234	4,989929
0,796000	0,652924	4,999847
0,797000	0,631866	4,999847
0,798000	0,641479	4,999847
0,799000	0,647278	4,999847
0,800000	0,630951	4,999847
0,801000	0,661011	3,379059
0,802000	0,621033	2,962341
0,803000	0,674286	4,789886
0,804000	0,612488	4,999847
0,805000	0,686493	4,999847
0,806000	0,605164	4,999847
0,807000	0,694122	4,999847
0,808000	0,613556	4,999847
0,809000	0,678406	4,999847
0,810000	0,632935	4,999847
0,811000	0,664520	3,779602
0,812000	0,650482	4,274597
0,813000	0,577850	4,262543
0,814000	0,635834	4,369659
0,815000	0,627289	4,999847
0,816000	0,676270	4,999847
0,817000	0,627594	4,999847
0,818000	0,695038	4,999847
0,819000	0,620575	4,780579
0,820000	0,708923	4,516296
0,821000	0,612488	3,193054
0,822000	0,708008	3,404541
0,823000	0,631256	4,999847
0,824000	0,691071	4,999847
0,825000	0,651703	4,999847
0,826000	0,675964	4,999847
0,827000	0,670471	4,999847
0,828000	0,662231	4,999847
0,829000	0,687866	4,999847
0,830000	0,649872	4,999847
0,831000	0,703888	3,767242
0,832000	0,638885	2,637024
0,833000	0,718842	4,425659
0,834000	0,629425	4,999847
0,835000	0,732727	4,999847
0,836000	0,626831	4,999847
0,837000	0,720673	4,999847
0,838000	0,650635	4,999847
0,839000	0,703278	4,999847
0,840000	0,672455	4,999847
0,841000	0,663910	3,350677
0,842000	0,682678	3,146515
0,843000	0,668488	4,975281
0,844000	0,708466	4,999847
0,845000	0,659027	4,999847
0,846000	0,726624	4,999847
0,847000	0,647736	4,999847
0,848000	0,742493	4,999847
0,849000	0,637512	4,999847
0,850000	0,754089	4,999847
0,851000	0,646820	3,537445
0,852000	0,733795	3,916016
0,853000	0,671387	3,964844
0,854000	0,714722	4,079285
0,855000	0,693665	4,999847
0,856000	0,697327	4,999847
0,857000	0,714722	4,999847
0,858000	0,682678	4,999847
0,859000	0,733490	4,999847
0,860000	0,669556	4,999847
0,861000	0,751190	3,072662
0,862000	0,657501	2,998199
0,863000	0,767059	4,999847
0,864000	0,646667	4,429474
0,865000	0,766754	4,999847
0,866000	0,668030	4,999847
0,867000	0,745392	4,999847
0,868000	0,693512	4,999847
0,869000	0,725861	4,999847
0,870000	0,717163	4,999847
0,871000	0,709076	3,818970
0,872000	0,738525	4,052582
0,873000	0,693359	4,104614
0,874000	0,757751	3,986206
0,875000	0,679932	4,999847
0,876000	0,775909	4,999847
0,877000	0,667725	4,999847
0,878000	0,792847	4,999847
0,879000	0,662384	4,999847
0,880000	0,779724	4,947357
0,881000	0,691681	3,036346
0,882000	0,758362	2,660522
0,883000	0,718384	4,359894
0,884000	0,738373	4,999847
0,885000	0,742340	4,999847
0,886000	0,720978	4,999847
0,887000	0,763702	4,999847
0,888000	0,705872	4,999847
0,889000	0,784149	4,999847
0,890000	0,691681	4,999847
0,891000	0,802002	3,571625
0,892000	0,679932	4,970093
0,893000	0,817261	3,793945
0,894000	0,687561	4,999847
0,895000	0,793457	4,999847
0,896000	0,717621	4,999847
0,897000	0,771027	4,999847
0,898000	0,744934	4,999847
0,899000	0,751953	4,999847
0,900000	0,768890	4,874573
0,901000	0,733643	3,451691
0,902000	0,790100	3,822784
0,903000	0,717926	4,947052
0,904000	0,810547	4,999847
0,905000	0,704651	4,999847
0,906000	0,829468	4,999847
0,907000	0,692596	4,999847
0,908000	0,831757	4,999847
0,909000	0,715485	4,999847
0,910000	0,806732	4,999847
0,911000	0,745087	4,052429
0,912000	0,785370	4,266357
0,913000	0,771942	3,415680
0,914000	0,765686	4,024811
0,915000	0,689240	4,999847
0,916000	0,703430	4,999847
0,917000	0,799866	4,999847
0,918000	0,725555	4,999847
0,919000	0,836029	4,999847
0,920000	0,718994	4,803925
0,921000	0,856934	3,131409
0,922000	0,712585	3,735199
0,923000	0,846558	4,360962
0,924000	0,745392	4,452362
0,925000	0,821991	4,999847
0,926000	0,775146	4,999847
0,927000	0,800476	4,999847
0,928000	0,802155	4,999847
0,929000	0,781555	4,999847
0,930000	0,826874	4,999847
0,931000	0,765076	3,261108
0,932000	0,848846	4,972382
0,933000	0,735779	3,440094
0,934000	0,862885	3,923187
0,935000	0,735016	4,999847
0,936000	0,886383	4,999847
0,937000	0,743866	4,999847
0,938000	0,861816	4,999847
0,939000	0,776978	4,999847
0,940000	0,838776	4,540100
0,941000	0,807343	3,016663
0,942000	0,818176	3,303223
0,943000	0,834045	4,427643
0,944000	0,760803	4,999847
0,945000	0,667114	4,999847
0,946000	0,636749	4,999847
0,947000	0,771179	4,999847
0,948000	0,765076	4,999847
0,949000	0,854950	4,999847
0,950000	0,776062	4,999847
0,951000	0,887146	4,070282
0,952000	0,767059	4,334259
0,953000	0,908356	3,524933
0,954000	0,758362	4,426880
0,955000	0,898743	4,999847
0,956000	0,792389	4,999847
0,957000	0,874023	4,999847
0,958000	0,823669	4,999847
0,959000	0,851746	4,999847
0,960000	0,851440	4,999847
0,961000	0,833130	3,082733
0,962000	0,877228	2,629395
0,963000	0,816498	4,090271
0,964000	0,900574	4,999847
0,965000	0,802155	4,999847
0,966000	0,921783	4,999847
0,967000	0,789948	4,999847
0,968000	0,944672	4,999847
0,969000	0,797424	4,999847
0,970000	0,916443	4,999847
0,971000	0,827637	4,007263
0,972000	0,892487	2,554474
0,973000	0,858307	3,871613
0,974000	0,875549	4,442902
0,975000	0,889282	4,999847
0,976000	0,856628	4,999847
0,977000	0,914154	4,999847
0,978000	0,836945	4,999847
0,979000	0,932770	4,999847
0,980000	0,823669	4,324036
0,981000	0,954437	3,395538
0,982000	0,812378	2,864075
0,983000	0,937653	4,633636
0,984000	0,821533	4,999847
0,985000	0,930634	4,999847
0,986000	0,862122	4,999847
0,987000	0,911255	4,999847
0,988000	0,893250	4,999847
0,989000	0,892181	4,999847
0,990000	0,920715	4,683228
0,991000	0,874481	3,728943
0,992000	0,933075	4,240875
0,993000	0,854340	3,110962
0,994000	0,964966	4,521179
0,995000	0,845642	4,999847
0,996000	0,986481	4,999847
0,997000	0,834656	4,999847
0,998000	0,979156	4,999847
0,999000	0,867615	4,999847

