LabVIEW Measurement	
Writer_Version	2
Reader_Version	2
Separator	Tab
Decimal_Separator	,
Multi_Headings	Yes
X_Columns	One
Time_Pref	Absolute
Operator	d.nicolai
Date	2023/11/09
Time	16:46:38,4425126999997713665
***End_of_Header***	
	
Channels	2		
Samples	1000	1000	
Date	2023/11/09	2023/11/09	
Time	16:46:41,3655130999998112364	16:46:41,3655130999998112364	
Y_Unit_Label	Volts	Volts	
X_Dimension	Time	Time	
X0	0,0000000000000000E+0	0,0000000000000000E+0	
Delta_X	0,001000	0,001000	
***End_of_Header***			
X_Value	powebox	triggerbox	Comment
0,000000	0,585480	0,880737
0,001000	0,601044	4,998932
0,002000	0,581055	4,999847
0,003000	0,608826	4,999847
0,004000	0,577240	4,999847
0,005000	0,616150	4,999847
0,006000	0,573883	4,999847
0,007000	0,622406	4,999847
0,008000	0,578156	4,999847
0,009000	0,614777	4,029846
0,010000	0,589294	3,748322
0,011000	0,607910	3,751678
0,012000	0,599670	4,106293
0,013000	0,601196	4,999847
0,014000	0,608978	4,999847
0,015000	0,595703	4,999847
0,016000	0,618439	4,999847
0,017000	0,589142	4,999847
0,018000	0,627136	4,809723
0,019000	0,584259	3,101501
0,020000	0,635223	2,358704
0,021000	0,579529	4,999847
0,022000	0,634918	4,999847
0,023000	0,589294	4,999847
0,024000	0,626526	4,999847
0,025000	0,602722	4,999847
0,026000	0,618134	4,999847
0,027000	0,614777	4,999847
0,028000	0,610504	4,999847
0,029000	0,625916	4,291077
0,030000	0,603485	3,765564
0,031000	0,636292	4,447479
0,032000	0,597229	4,198303
0,033000	0,646210	4,902039
0,034000	0,591278	4,999847
0,035000	0,655060	4,999847
0,036000	0,588989	4,999847
0,037000	0,649567	4,999847
0,038000	0,604401	4,999847
0,039000	0,638885	3,035431
0,040000	0,527954	3,488007
0,041000	0,574341	4,999847
0,042000	0,608673	4,999847
0,043000	0,610504	4,999847
0,044000	0,625305	4,999847
0,045000	0,604401	4,999847
0,046000	0,637360	4,999847
0,047000	0,597687	4,999847
0,048000	0,647430	4,999847
0,049000	0,590210	4,178772
0,050000	0,671692	2,384949
0,051000	0,601654	3,315582
0,052000	0,661774	4,948883
0,053000	0,619202	4,999847
0,054000	0,650177	4,999847
0,055000	0,635071	4,999847
0,056000	0,639191	4,999847
0,057000	0,649719	4,999847
0,058000	0,629425	4,999847
0,059000	0,663300	2,925568
0,060000	0,620728	2,096252
0,061000	0,659180	4,374390
0,062000	0,605316	4,900970
0,063000	0,684814	4,999847
0,064000	0,604095	4,999847
0,065000	0,689240	4,999847
0,066000	0,618744	4,999847
0,067000	0,674744	4,999847
0,068000	0,637054	4,999847
0,069000	0,661774	4,212494
0,070000	0,654449	4,999847
0,071000	0,649567	3,502197
0,072000	0,670013	3,690796
0,073000	0,639038	4,999847
0,074000	0,684052	4,999847
0,075000	0,629120	4,999847
0,076000	0,697479	4,999847
0,077000	0,620270	4,999847
0,078000	0,709686	4,604034
0,079000	0,614929	2,940063
0,080000	0,702820	2,972260
0,081000	0,635986	4,717102
0,082000	0,686493	4,932404
0,083000	0,655823	4,999847
0,084000	0,672455	4,999847
0,085000	0,673828	4,999847
0,086000	0,659485	4,999847
0,087000	0,690308	4,999847
0,088000	0,647736	4,999847
0,089000	0,706024	4,031525
0,090000	0,637207	4,682465
0,091000	0,719757	2,979584
0,092000	0,627441	4,234467
0,093000	0,731812	4,999847
0,094000	0,631866	4,999847
0,095000	0,714569	4,999847
0,096000	0,654449	4,999847
0,097000	0,697784	4,999847
0,098000	0,675049	4,721375
0,099000	0,682526	3,282471
0,100000	0,694275	4,058380
0,101000	0,668488	3,159943
0,102000	0,711823	4,999847
0,103000	0,656128	4,999847
0,104000	0,727997	4,999847
0,105000	0,644989	4,999847
0,106000	0,742645	4,999847
0,107000	0,635071	4,999847
0,108000	0,746155	4,999847
0,109000	0,650482	3,871918
0,110000	0,726318	3,519745
0,111000	0,674286	2,920837
0,112000	0,708313	4,754486
0,113000	0,695801	4,999847
0,114000	0,692139	4,999847
0,115000	0,715637	4,999847
0,116000	0,677185	4,999847
0,117000	0,734100	4,999847
0,118000	0,664825	4,712677
0,119000	0,750732	3,762970
0,120000	0,653229	3,374939
0,121000	0,766449	4,999847
0,122000	0,645294	4,999847
0,123000	0,758972	4,999847
0,124000	0,671539	4,999847
0,125000	0,737762	4,999847
0,126000	0,696106	4,999847
0,127000	0,719147	4,999847
0,128000	0,718384	4,904327
0,129000	0,702972	4,602203
0,130000	0,739288	3,365479
0,131000	0,688324	3,511658
0,132000	0,758209	3,575745
0,133000	0,674744	4,999847
0,134000	0,761871	4,999847
0,135000	0,657196	4,999847
0,136000	0,788574	4,999847
0,137000	0,665131	4,999847
0,138000	0,769958	4,860229
0,139000	0,693970	3,447571
0,140000	0,749359	3,930969
0,141000	0,719452	3,827515
0,142000	0,704803	4,999847
0,143000	0,689240	4,999847
0,144000	0,691528	4,999847
0,145000	0,754395	4,999847
0,146000	0,694885	4,999847
0,147000	0,781250	4,999847
0,148000	0,684967	4,824829
0,149000	0,800476	3,789062
0,150000	0,673828	3,941193
0,151000	0,807648	3,357086
0,152000	0,690613	4,216766
0,153000	0,783386	4,999847
0,154000	0,718842	4,999847
0,155000	0,762024	4,999847
0,156000	0,744934	4,999847
0,157000	0,743103	4,999847
0,158000	0,768585	4,565125
0,159000	0,726471	3,150482
0,160000	0,790558	4,272766
0,161000	0,711517	2,992554
0,162000	0,809784	4,999847
0,163000	0,698242	4,999847
0,164000	0,827789	4,999847
0,165000	0,687408	4,999847
0,166000	0,821381	4,999847
0,167000	0,717621	4,999847
0,168000	0,797729	4,689789
0,169000	0,747223	4,136963
0,170000	0,776215	4,551697
0,171000	0,773163	2,849426
0,172000	0,757751	3,918152
0,173000	0,768280	4,999847
0,174000	0,728912	4,999847
0,175000	0,813599	4,999847
0,176000	0,724182	4,999847
0,177000	0,838013	4,999847
0,178000	0,712738	4,527130
0,179000	0,856018	3,005829
0,180000	0,715179	3,460541
0,181000	0,836029	3,752594
0,182000	0,747223	4,999847
0,183000	0,812378	4,999847
0,184000	0,776367	4,999847
0,185000	0,791779	4,999847
0,186000	0,802460	4,999847
0,187000	0,773163	4,999847
0,188000	0,826874	4,999847
0,189000	0,757141	3,756561
0,190000	0,848236	3,778381
0,191000	0,743256	3,725128
0,192000	0,859985	4,021759
0,193000	0,727081	4,999847
0,194000	0,876617	4,999847
0,195000	0,746155	4,999847
0,196000	0,851898	4,999847
0,197000	0,778656	4,999847
0,198000	0,828552	4,555359
0,199000	0,807648	3,217468
0,200000	0,808716	2,586823
0,201000	0,834351	4,060059
0,202000	0,791168	4,999847
0,203000	0,857239	4,999847
0,204000	0,775452	4,999847
0,205000	0,879211	4,999847
0,206000	0,762177	4,999847
0,207000	0,898437	4,999847
0,208000	0,736389	4,999847
0,209000	0,659027	4,192047
0,210000	0,628967	4,243927
0,211000	0,621033	3,299103
0,212000	0,748596	4,151764
0,213000	0,774384	4,999847
0,214000	0,845795	4,999847
0,215000	0,789032	4,999847
0,216000	0,881653	4,999847
0,217000	0,779877	4,999847
0,218000	0,904083	4,316406
0,219000	0,768890	4,324341
0,220000	0,919952	2,726593
0,221000	0,780182	4,999847
0,222000	0,894165	4,999847
0,223000	0,813904	4,999847
0,224000	0,870514	4,999847
0,225000	0,843811	4,999847
0,226000	0,849457	4,999847
0,227000	0,870361	4,999847
0,228000	0,832367	4,737244
0,229000	0,895233	4,580994
0,230000	0,816345	3,622131
0,231000	0,897522	3,840179
0,232000	0,794525	4,984589
0,233000	0,934143	4,999847
0,234000	0,790100	4,999847
0,235000	0,938263	4,999847
0,236000	0,816498	4,999847
0,237000	0,913544	4,999847
0,238000	0,849457	4,162140
0,239000	0,890656	3,987427
0,240000	0,879211	3,625946
0,241000	0,871429	3,291016
0,242000	0,905151	4,999847
0,243000	0,853424	4,999847
0,244000	0,928802	4,999847
0,245000	0,748138	4,999847
0,246000	0,913086	4,999847
0,247000	0,810089	4,999847
0,248000	0,963898	4,999847
0,249000	0,815582	4,138336
0,250000	0,955505	3,865356
0,251000	0,852814	2,750397
0,252000	0,931702	4,947815
0,253000	0,829926	4,999847
0,254000	0,856476	4,999847
0,255000	0,891571	4,999847
0,256000	0,882111	4,999847
0,257000	0,935364	4,831085
0,258000	0,873871	4,630127
0,259000	0,961914	3,887939
0,260000	0,859833	2,304535
0,261000	0,984192	4,535522
0,262000	0,848389	4,999847
0,263000	1,002655	4,999847
0,264000	0,856018	4,999847
0,265000	0,974884	4,999847
0,266000	0,890350	4,999847
0,267000	0,951996	4,999847
0,268000	0,922089	4,999847
0,269000	0,930634	4,653931
0,270000	0,949249	3,655396
0,271000	0,913086	2,940674
0,272000	0,974426	3,948212
0,273000	0,882263	4,999847
0,274000	0,989838	4,999847
0,275000	0,881195	4,999847
0,276000	1,016235	4,999847
0,277000	0,871277	4,999847
0,278000	1,021118	4,999847
0,279000	0,893707	3,620911
0,280000	0,994720	2,407074
0,281000	0,927277	4,437408
0,282000	0,971069	4,664612
0,283000	0,956726	4,999847
0,284000	0,951538	4,999847
0,285000	0,983887	4,999847
0,286000	0,934753	4,999847
0,287000	1,008911	4,999847
0,288000	0,920563	4,999847
0,289000	1,031342	4,341888
0,290000	0,903473	4,251862
0,291000	1,035767	4,148102
0,292000	0,890198	3,378601
0,293000	1,038208	4,999847
0,294000	0,931091	4,999847
0,295000	1,016083	4,999847
0,296000	0,961456	4,999847
0,297000	0,992126	4,999847
0,298000	0,990906	4,999847
0,299000	0,972137	3,761749
0,300000	1,015930	2,890472
0,301000	0,959167	4,999847
0,302000	1,042023	4,829712
0,303000	0,944977	4,999847
0,304000	1,066895	4,999847
0,305000	0,932617	4,999847
0,306000	1,087494	4,999847
0,307000	0,937195	4,999847
0,308000	1,063232	4,999847
0,309000	0,971222	4,458618
0,310000	1,039886	3,398590
0,311000	1,001892	4,864807
0,312000	1,018372	3,042755
0,313000	1,030121	4,999847
0,314000	0,999908	4,999847
0,315000	0,995026	4,999847
0,316000	0,877228	4,999847
0,317000	1,029053	4,999847
0,318000	0,944214	4,999847
0,319000	1,088562	3,328400
0,320000	0,949554	4,163208
0,321000	1,101837	3,404541
0,322000	0,972137	4,729309
0,323000	1,078644	4,999847
0,324000	1,006470	4,999847
0,325000	1,055145	4,999847
0,326000	1,036682	4,999847
0,327000	1,035767	4,999847
0,328000	1,060486	4,999847
0,329000	1,013794	3,810120
0,330000	1,086273	3,632507
0,331000	0,997314	3,684540
0,332000	1,108398	3,611298
0,333000	0,984650	4,999847
0,334000	1,123810	4,999847
0,335000	0,969849	4,999847
0,336000	1,106567	4,999847
0,337000	1,005707	4,999847
0,338000	1,082153	4,999847
0,339000	1,037598	3,748016
0,340000	1,060791	2,635193
0,341000	1,067047	4,999847
0,342000	1,042175	4,946899
0,343000	1,093750	4,999847
0,344000	1,025391	4,999847
0,345000	1,115875	4,999847
0,346000	1,010132	4,999847
0,347000	1,074524	4,999847
0,348000	0,955963	4,999847
0,349000	1,130371	4,324951
0,350000	0,996246	3,502808
0,351000	1,105194	3,207245
0,352000	1,032104	2,720947
0,353000	1,083221	4,999847
0,354000	1,065063	4,999847
0,355000	1,063843	4,999847
0,356000	1,094360	4,999847
0,357000	1,047058	4,999847
0,358000	1,119232	4,911957
0,359000	1,033020	3,101501
0,360000	1,131744	3,910522
0,361000	1,018372	3,282471
0,362000	1,137543	4,491882
0,363000	1,007233	4,999847
0,364000	1,129456	4,999847
0,365000	1,023102	4,999847
0,366000	1,101532	4,999847
0,367000	1,059265	4,999847
0,368000	1,082458	4,999847
0,369000	1,092072	3,798981
0,370000	1,066437	2,677612
0,371000	1,119232	4,999847
0,372000	1,051788	3,148499
0,373000	1,133881	4,999847
0,374000	1,038818	4,999847
0,375000	1,138000	4,999847
0,376000	1,026306	4,999847
0,377000	1,139069	4,999847
0,378000	1,015625	4,503021
0,379000	0,960693	3,488464
0,380000	0,936890	3,221893
0,381000	0,927734	4,714355
0,382000	0,921631	4,632263
0,383000	0,919342	4,999847
0,384000	0,918427	4,999847
0,385000	0,918121	4,999847
0,386000	0,917358	4,999847
0,387000	0,909424	4,999847
0,388000	0,897369	4,855042
0,389000	0,909271	3,662109
0,390000	0,911102	4,388428
0,391000	0,913391	3,468323
0,392000	0,915527	3,585510
0,393000	0,913696	4,999847
0,394000	0,914154	4,999847
0,395000	0,914307	4,999847
0,396000	0,914612	4,999847
0,397000	0,914612	4,999847
0,398000	0,915833	4,725800
0,399000	0,826111	3,675232
0,400000	0,675812	2,423553
0,401000	0,602875	4,999847
0,402000	0,578003	4,735870
0,403000	0,567322	4,999847
0,404000	0,559082	4,999847
0,405000	0,565338	4,999847
0,406000	0,554199	4,999847
0,407000	0,568848	4,999847
0,408000	0,552826	4,916534
0,409000	0,573578	3,932190
0,410000	0,548248	3,120880
0,411000	0,575104	4,155731
0,412000	0,550690	3,417053
0,413000	0,571899	4,999847
0,414000	0,557556	4,999847
0,415000	0,568695	4,999847
0,416000	0,563812	4,999847
0,417000	0,565491	4,999847
0,418000	0,570068	4,592438
0,419000	0,562592	3,917847
0,420000	0,576019	4,256592
0,421000	0,560150	3,510132
0,422000	0,582428	4,622650
0,423000	0,557404	4,999847
0,424000	0,588074	4,999847
0,425000	0,555115	4,999847
0,426000	0,590210	4,999847
0,427000	0,561523	4,999847
0,428000	0,585480	4,999847
0,429000	0,570068	4,281464
0,430000	0,580444	4,205475
0,431000	0,577850	3,073578
0,432000	0,576324	2,793274
0,433000	0,585632	4,999847
0,434000	0,572205	4,999847
0,435000	0,592804	4,999847
0,436000	0,569000	4,999847
0,437000	0,600128	4,999847
0,438000	0,565338	4,159088
0,439000	0,606995	3,580475
0,440000	0,563507	3,681335
0,441000	0,604706	4,189301
0,442000	0,574036	4,999847
0,443000	0,580292	4,999847
0,444000	0,576630	4,999847
0,445000	0,589142	4,999847
0,446000	0,592804	4,999847
0,447000	0,586548	4,999847
0,448000	0,602875	4,965973
0,449000	0,581970	4,162750
0,450000	0,541840	3,723450
0,451000	0,548401	4,672852
0,452000	0,607605	4,280090
0,453000	0,567932	4,999847
0,454000	0,625305	4,999847
0,455000	0,575104	4,999847
0,456000	0,619049	4,999847
0,457000	0,588226	4,999847
0,458000	0,611267	4,417725
0,459000	0,600128	3,719025
0,460000	0,604248	4,058075
0,461000	0,610657	3,952637
0,462000	0,597534	4,999847
0,463000	0,621185	4,999847
0,464000	0,591278	4,999847
0,465000	0,630951	4,999847
0,466000	0,585937	4,999847
0,467000	0,639954	4,999847
0,468000	0,580597	4,999847
0,469000	0,643158	4,999847
0,470000	0,589600	3,858337
0,471000	0,632782	2,918091
0,472000	0,603790	3,845215
0,473000	0,623474	4,999847
0,474000	0,616608	4,999847
0,475000	0,614319	4,999847
0,476000	0,628357	4,999847
0,477000	0,606537	4,999847
0,478000	0,639954	4,231873
0,479000	0,599670	4,366760
0,480000	0,636902	3,614044
0,481000	0,587463	4,163208
0,482000	0,657959	4,989624
0,483000	0,587463	4,999847
0,484000	0,656891	4,999847
0,485000	0,604706	4,999847
0,486000	0,644989	4,999847
0,487000	0,619965	4,999847
0,488000	0,635071	4,502563
0,489000	0,634918	4,938354
0,490000	0,625763	3,216705
0,491000	0,648193	3,234558
0,492000	0,593567	3,427429
0,493000	0,651245	4,999847
0,494000	0,604706	4,999847
0,495000	0,663910	4,999847
0,496000	0,594635	4,999847
0,497000	0,675507	4,999847
0,498000	0,600281	4,119263
0,499000	0,652313	4,078369
0,500000	0,613403	3,512115
0,501000	0,627441	4,063568
0,502000	0,625916	4,999847
0,503000	0,640869	4,999847
0,504000	0,652008	4,999847
0,505000	0,634613	4,999847
0,506000	0,668488	4,999847
0,507000	0,625763	4,999847
0,508000	0,681915	4,999847
0,509000	0,616913	4,541779
0,510000	0,694733	4,259796
0,511000	0,609283	3,305511
0,512000	0,700073	3,950500
0,513000	0,619965	4,999847
0,514000	0,684052	4,999847
0,515000	0,639954	4,999847
0,516000	0,669708	4,999847
0,517000	0,657959	4,999847
0,518000	0,656586	4,801483
0,519000	0,674438	3,611755
0,520000	0,645142	3,651733
0,521000	0,690002	3,743439
0,522000	0,634613	4,999847
0,523000	0,704193	4,999847
0,524000	0,625000	4,999847
0,525000	0,717621	4,999847
0,526000	0,617371	4,999847
0,527000	0,713959	4,999847
0,528000	0,638580	4,905548
0,529000	0,696564	3,982086
0,530000	0,659027	3,013306
0,531000	0,680695	4,747162
0,532000	0,678101	3,368073
0,533000	0,666809	4,999847
0,534000	0,695953	4,999847
0,535000	0,653992	4,999847
0,536000	0,711975	4,999847
0,537000	0,643005	4,999847
0,538000	0,726929	4,505310
0,539000	0,633240	3,750458
0,540000	0,741425	3,625946
0,541000	0,634155	4,204254
0,542000	0,726624	4,999237
0,543000	0,658264	4,999847
0,544000	0,708466	4,999847
0,545000	0,680389	4,999847
0,546000	0,692139	4,999847
0,547000	0,700378	4,999847
0,548000	0,677338	4,999847
0,549000	0,719147	3,986511
0,550000	0,664368	3,293610
0,551000	0,735931	4,999847
0,552000	0,573120	3,537445
0,553000	0,714874	4,196930
0,554000	0,626678	4,999847
0,555000	0,753937	4,999847
0,556000	0,651550	4,999847
0,557000	0,737915	4,999847
0,558000	0,678864	4,999847
0,559000	0,705414	3,647308
0,560000	0,696106	2,977753
0,561000	0,684967	4,999847
0,562000	0,715790	4,999847
0,563000	0,670776	4,999847
0,564000	0,735168	4,999847
0,565000	0,670776	4,999847
0,566000	0,759125	4,999847
0,567000	0,662079	4,999847
0,568000	0,776215	4,999847
0,569000	0,650787	4,015503
0,570000	0,772247	3,032837
0,571000	0,675964	4,014130
0,572000	0,750580	3,732910
0,573000	0,702209	4,999847
0,574000	0,731049	4,999847
0,575000	0,724945	4,999847
0,576000	0,713348	4,999847
0,577000	0,746613	4,999847
0,578000	0,698090	4,653625
0,579000	0,766907	3,318634
0,580000	0,684814	3,609467
0,581000	0,785065	4,374237
0,582000	0,672607	4,800262
0,583000	0,801849	4,999847
0,584000	0,670929	4,999847
0,585000	0,785522	4,999847
0,586000	0,700226	4,999847
0,587000	0,763397	4,999847
0,588000	0,726776	4,999847
0,589000	0,743561	4,612122
0,590000	0,751190	3,553009
0,591000	0,726166	3,828735
0,592000	0,772552	3,296204
0,593000	0,710297	4,999847
0,594000	0,793152	4,999847
0,595000	0,696869	4,999847
0,596000	0,811768	4,999847
0,597000	0,684662	4,999847
0,598000	0,823364	4,999847
0,599000	0,697021	3,480682
0,600000	0,798798	3,893890
0,601000	0,726776	4,305878
0,602000	0,776825	4,501190
0,603000	0,753479	4,999847
0,604000	0,756836	4,999847
0,605000	0,778198	4,999847
0,606000	0,739288	4,999847
0,607000	0,800629	4,999847
0,608000	0,724335	4,999847
0,609000	0,820618	3,834686
0,610000	0,710907	3,790741
0,611000	0,839081	3,660431
0,612000	0,698853	3,360291
0,613000	0,837860	4,999847
0,614000	0,724792	4,999847
0,615000	0,812988	4,999847
0,616000	0,755463	4,999847
0,617000	0,791473	4,999847
0,618000	0,782013	4,999847
0,619000	0,771484	4,095154
0,620000	0,806885	3,609161
0,621000	0,754700	3,240967
0,622000	0,829620	4,335022
0,623000	0,740204	4,999847
0,624000	0,850067	4,999847
0,625000	0,727081	4,999847
0,626000	0,868530	4,999847
0,627000	0,723267	4,999847
0,628000	0,852814	4,999847
0,629000	0,756226	4,266205
0,630000	0,828857	3,902588
0,631000	0,785675	2,820740
0,632000	0,807343	2,553558
0,633000	0,812683	4,999847
0,634000	0,788574	4,999847
0,635000	0,837250	4,999847
0,636000	0,771790	4,999847
0,637000	0,859680	4,999847
0,638000	0,757446	4,860687
0,639000	0,879669	3,215942
0,640000	0,744629	4,252777
0,641000	0,894623	3,032532
0,642000	0,755615	4,560852
0,643000	0,868835	4,999847
0,644000	0,789185	4,999847
0,645000	0,840454	4,999847
0,646000	0,701141	4,999847
0,647000	0,642395	4,999847
0,648000	0,617371	4,864044
0,649000	0,617828	3,657532
0,650000	0,816956	3,781738
0,651000	0,735931	3,628540
0,652000	0,891876	4,100037
0,653000	0,748749	4,999847
0,654000	0,863800	4,999847
0,655000	0,724487	4,999847
0,656000	0,844574	4,999847
0,657000	0,807495	4,999847
0,658000	0,823212	4,479980
0,659000	0,836182	3,374634
0,660000	0,825653	4,071960
0,661000	0,870667	4,125824
0,662000	0,812073	4,220123
0,663000	0,895386	4,999847
0,664000	0,798492	4,999847
0,665000	0,916595	4,999847
0,666000	0,785370	4,999847
0,667000	0,936127	4,999847
0,668000	0,788727	4,999847
0,669000	0,913086	4,716187
0,670000	0,822601	3,775330
0,671000	0,889435	3,997955
0,672000	0,853577	4,615173
0,673000	0,868378	4,999847
0,674000	0,880585	4,999847
0,675000	0,850220	4,999847
0,676000	0,895386	4,999847
0,677000	0,829468	4,999847
0,678000	0,926819	4,784241
0,679000	0,818939	3,241119
0,680000	0,949097	3,122101
0,681000	0,807648	4,362030
0,682000	0,957489	4,670410
0,683000	0,825348	4,999847
0,684000	0,931702	4,999847
0,685000	0,858154	4,999847
0,686000	0,908356	4,999847
0,687000	0,888519	4,999847
0,688000	0,888672	4,999847
0,689000	0,915527	4,966736
0,690000	0,870972	3,675690
0,691000	0,940094	4,149323
0,692000	0,855560	2,948303
0,693000	0,962219	4,999847
0,694000	0,790863	4,999847
0,695000	0,929413	4,999847
0,696000	0,807953	4,999847
0,697000	0,966644	4,999847
0,698000	0,858154	4,261322
0,699000	0,948639	3,579407
0,700000	0,893860	3,959045
0,701000	0,927887	3,709717
0,702000	0,923462	4,899902
0,703000	0,908661	4,999847
0,704000	0,916138	4,999847
0,705000	0,878448	4,999847
0,706000	0,968323	4,999847
0,707000	0,875244	4,999847
0,708000	0,994415	4,629211
0,709000	0,864563	4,999847
0,710000	1,014557	3,734131
0,711000	0,864716	4,501648
0,712000	0,994568	3,880768
0,713000	0,899506	4,757996
0,714000	0,970154	4,999847
0,715000	0,930939	4,999847
0,716000	0,948944	4,999847
0,717000	0,958710	4,999847
0,718000	0,930023	4,612122
0,719000	0,984497	4,039612
0,720000	0,914459	2,914734
0,721000	1,007538	4,372559
0,722000	0,900116	4,822235
0,723000	1,029053	4,999847
0,724000	0,888824	4,999847
0,725000	1,041412	4,999847
0,726000	0,903473	4,999847
0,727000	1,015625	4,999847
0,728000	0,937805	4,722290
0,729000	0,992126	4,547272
0,730000	0,967560	3,593903
0,731000	0,971832	4,714050
0,732000	0,994873	3,476257
0,733000	0,954895	4,999847
0,734000	1,020050	4,999847
0,735000	0,939331	4,999847
0,736000	1,042938	4,999847
0,737000	0,925598	4,999847
0,738000	1,065063	4,709015
0,739000	0,913849	4,389954
0,740000	1,063232	4,770203
0,741000	0,943298	3,829193
0,742000	1,039124	4,796143
0,743000	0,975952	4,999847
0,744000	1,016693	4,999847
0,745000	1,004486	4,999847
0,746000	0,996552	4,999847
0,747000	1,031494	4,999847
0,748000	0,979004	4,552917
0,749000	1,056366	4,597931
0,750000	0,963440	3,086090
0,751000	1,079254	4,843903
0,752000	0,950012	3,394012
0,753000	1,100159	4,999847
0,754000	0,946045	4,999847
0,755000	1,081543	4,999847
0,756000	0,980225	4,999847
0,757000	0,959625	4,999847
0,758000	0,970154	4,483185
0,759000	1,018829	3,132172
0,760000	1,032104	3,058319
0,761000	1,013641	4,221191
0,762000	1,064911	4,999847
0,763000	0,998077	4,999847
0,764000	1,090546	4,999847
0,765000	0,982971	4,999847
0,766000	1,110535	4,999847
0,767000	0,969849	4,999847
0,768000	1,118011	4,999847
0,769000	0,979614	4,225616
0,770000	1,089020	3,040619
0,771000	1,013184	4,641876
0,772000	1,066437	3,945770
0,773000	1,043701	4,999847
0,774000	1,046295	4,999847
0,775000	1,072388	4,999847
0,776000	1,027527	4,999847
0,777000	1,098328	4,999847
0,778000	1,011505	4,855347
0,779000	1,118469	3,820496
0,780000	0,996857	3,049469
0,781000	1,129761	3,692169
0,782000	0,984802	4,906921
0,783000	1,116943	4,999847
0,784000	1,009979	4,999847
0,785000	1,091156	4,999847
0,786000	1,044006	4,999847
0,787000	1,070862	4,999847
0,788000	1,074677	4,999847
0,789000	1,052094	4,335937
0,790000	1,103058	2,959137
0,791000	1,036072	4,562225
0,792000	1,123962	4,480896
0,793000	1,022034	4,669495
0,794000	1,134491	4,999847
0,795000	1,008759	4,999847
0,796000	1,138458	4,999847
0,797000	1,002655	4,999847
0,798000	1,113129	4,376373
0,799000	1,037750	4,243774
0,800000	1,090698	4,284058
0,801000	1,071777	4,309235
0,802000	1,072235	4,999847
0,803000	1,103210	4,999847
0,804000	1,056213	4,999847
0,805000	1,125946	4,999847
0,806000	1,042328	4,999847
0,807000	1,137848	4,999847
0,808000	1,029358	4,999847
0,809000	1,140137	4,281158
0,810000	1,018219	2,656860
0,811000	1,138000	3,693085
0,812000	1,027374	4,454803
0,813000	1,108246	4,999847
0,814000	1,064758	4,999847
0,815000	1,089325	4,999847
0,816000	0,993347	4,999847
0,817000	0,952454	4,999847
0,818000	0,935059	4,743958
0,819000	0,926208	4,461823
0,820000	0,922546	4,105530
0,821000	0,921631	3,096466
0,822000	0,920563	4,999847
0,823000	0,920410	4,999847
0,824000	0,919800	4,999847
0,825000	0,919495	4,999847
0,826000	0,919189	4,999847
0,827000	0,919647	4,999847
0,828000	0,919952	4,999847
0,829000	0,918884	4,437408
0,830000	0,919189	3,017731
0,831000	0,918884	4,755402
0,832000	0,918732	3,446198
0,833000	0,918884	4,999847
0,834000	0,919037	4,999847
0,835000	0,919189	4,999847
0,836000	0,919037	4,999847
0,837000	0,919495	4,999847
0,838000	0,728760	4,806824
0,839000	0,687256	4,682617
0,840000	0,665741	3,045654
0,841000	0,625000	4,093018
0,842000	0,636902	4,806824
0,843000	0,619354	4,999847
0,844000	0,628815	4,999847
0,845000	0,622406	4,999847
0,846000	0,624695	4,999847
0,847000	0,627136	4,999847
0,848000	0,619965	4,999847
0,849000	0,632935	4,730072
0,850000	0,618896	4,148865
0,851000	0,639191	4,051208
0,852000	0,616913	3,936615
0,853000	0,644531	4,978485
0,854000	0,615234	4,999847
0,855000	0,647278	4,999847
0,856000	0,619659	4,999847
0,857000	0,644226	4,999847
0,858000	0,628815	4,854889
0,859000	0,580597	4,283600
0,860000	0,590515	3,727417
0,861000	0,616150	4,002380
0,862000	0,636139	4,999847
0,863000	0,629578	4,999847
0,864000	0,650787	4,999847
0,865000	0,628510	4,999847
0,866000	0,658875	4,999847
0,867000	0,626221	4,999847
0,868000	0,665894	4,999847
0,869000	0,624084	4,242706
0,870000	0,666351	3,069916
0,871000	0,634460	4,816742
0,872000	0,658875	3,834839
0,873000	0,643463	4,999847
0,874000	0,653229	4,999847
0,875000	0,652924	4,999847
0,876000	0,647125	4,999847
0,877000	0,662689	4,999847
0,878000	0,644073	4,999847
0,879000	0,672455	3,840179
0,880000	0,640717	2,354126
0,881000	0,681000	3,416595
0,882000	0,625610	4,942322
0,883000	0,683899	4,999847
0,884000	0,634918	4,999847
0,885000	0,682220	4,999847
0,886000	0,649414	4,999847
0,887000	0,674744	4,999847
0,888000	0,662231	4,999847
0,889000	0,666656	4,293976
0,890000	0,672607	4,695587
0,891000	0,662689	3,830872
0,892000	0,684052	3,961029
0,893000	0,655365	4,999847
0,894000	0,693359	4,999847
0,895000	0,648804	4,999847
0,896000	0,702209	4,999847
0,897000	0,643768	4,999847
0,898000	0,708466	4,865723
0,899000	0,651855	3,954926
0,900000	0,698853	3,589630
0,901000	0,665894	3,511658
0,902000	0,688934	4,698181
0,903000	0,680084	4,999847
0,904000	0,680389	4,999847
0,905000	0,693359	4,999847
0,906000	0,672607	4,999847
0,907000	0,705261	4,999847
0,908000	0,664062	4,999847
0,909000	0,715179	4,128876
0,910000	0,657654	3,932953
0,911000	0,701904	4,999847
0,912000	0,641937	3,372345
0,913000	0,720978	4,999847
0,914000	0,666351	4,999847
0,915000	0,711823	4,999847
0,916000	0,684509	4,999847
0,917000	0,702362	4,999847
0,918000	0,700989	4,781799
0,919000	0,691986	3,572540
0,920000	0,715179	3,792877
0,921000	0,682373	3,738251
0,922000	0,726471	4,956512
0,923000	0,673981	4,999847
0,924000	0,738525	4,999847
0,925000	0,666199	4,999847
0,926000	0,750275	4,999847
0,927000	0,666809	4,999847
0,928000	0,738373	4,999847
0,929000	0,684662	4,142914
0,930000	0,725403	3,997955
0,931000	0,703583	4,427490
0,932000	0,713196	2,865448
0,933000	0,719299	4,999847
0,934000	0,701752	4,999847
0,935000	0,733337	4,999847
0,936000	0,691833	4,999847
0,937000	0,749054	4,999847
0,938000	0,683136	4,999847
0,939000	0,762177	3,224792
0,940000	0,674896	3,498840
0,941000	0,770569	4,668121
0,942000	0,683441	4,926300
0,943000	0,753479	4,999847
0,944000	0,704193	4,999847
0,945000	0,736694	4,999847
0,946000	0,724030	4,999847
0,947000	0,725555	4,999847
0,948000	0,741272	4,999847
0,949000	0,712585	3,643646
0,950000	0,757751	3,725128
0,951000	0,701294	4,251099
0,952000	0,773010	4,501495
0,953000	0,692291	4,999847
0,954000	0,788574	4,999847
0,955000	0,683594	4,999847
0,956000	0,785980	4,999847
0,957000	0,703583	4,999847
0,958000	0,766754	4,290771
0,959000	0,726013	3,055878
0,960000	0,752563	4,268494
0,961000	0,747833	4,791870
0,962000	0,656586	4,760895
0,963000	0,733032	4,999847
0,964000	0,710907	4,999847
0,965000	0,778046	4,999847
0,966000	0,711212	4,999847
0,967000	0,798950	4,999847
0,968000	0,703125	4,999847
0,969000	0,818329	4,241943
0,970000	0,705261	4,522247
0,971000	0,806580	4,491577
0,972000	0,731659	4,054108
0,973000	0,787506	4,999847
0,974000	0,754700	4,999847
0,975000	0,770264	4,999847
0,976000	0,776672	4,999847
0,977000	0,755615	4,999847
0,978000	0,796814	4,999847
0,979000	0,741272	3,701630
0,980000	0,816498	4,531555
0,981000	0,728760	3,515320
0,982000	0,832367	4,985352
0,983000	0,718079	4,999847
0,984000	0,845184	4,999847
0,985000	0,727081	4,999847
0,986000	0,821838	4,999847
0,987000	0,755768	4,999847
0,988000	0,800934	4,999847
0,989000	0,780029	4,226227
0,990000	0,783691	3,059998
0,991000	0,803528	4,525909
0,992000	0,767975	3,952026
0,993000	0,822601	4,999847
0,994000	0,753174	4,999847
0,995000	0,838318	4,999847
0,996000	0,736237	4,999847
0,997000	0,854492	4,999847
0,998000	0,722656	4,498901
0,999000	0,853577	3,312683

