LabVIEW Measurement	
Writer_Version	2
Reader_Version	2
Separator	Tab
Decimal_Separator	,
Multi_Headings	Yes
X_Columns	One
Time_Pref	Absolute
Operator	d.nicolai
Date	2023/11/09
Time	16:46:38,4425126999997713665
***End_of_Header***	
	
Channels	2		
Samples	1000	1000	
Date	2023/11/09	2023/11/09	
Time	16:46:48,5475121999997169984	16:46:48,5475121999997169984	
Y_Unit_Label	Volts	Volts	
X_Dimension	Time	Time	
X0	0,0000000000000000E+0	0,0000000000000000E+0	
Delta_X	0,001000	0,001000	
***End_of_Header***			
X_Value	powebox	triggerbox	Comment
0,000000	0,751495	1,021576
0,001000	0,763550	4,999847
0,002000	0,776825	4,871216
0,003000	0,746155	4,999847
0,004000	0,786896	4,999847
0,005000	0,725098	4,999847
0,006000	0,818481	4,999847
0,007000	0,716400	4,999847
0,008000	0,839539	4,999847
0,009000	0,704956	3,720093
0,010000	0,846710	2,640839
0,011000	0,723267	4,602661
0,012000	0,821838	3,138580
0,013000	0,754395	4,999847
0,014000	0,798798	4,999847
0,015000	0,780487	4,999847
0,016000	0,779419	4,999847
0,017000	0,806732	4,999847
0,018000	0,763245	4,915161
0,019000	0,830078	3,410339
0,020000	0,748444	3,589020
0,021000	0,850830	3,538666
0,022000	0,735626	4,826355
0,023000	0,869751	4,999847
0,024000	0,724182	4,999847
0,025000	0,862579	4,999847
0,026000	0,670166	4,999847
0,027000	0,802155	4,999847
0,028000	0,771484	4,999847
0,029000	0,810394	3,873444
0,030000	0,811005	4,347076
0,031000	0,796814	4,570312
0,032000	0,838318	3,466034
0,033000	0,781708	4,999847
0,034000	0,861359	4,999847
0,035000	0,767975	4,999847
0,036000	0,881500	4,999847
0,037000	0,755463	4,999847
0,038000	0,900726	4,875641
0,039000	0,757599	2,788086
0,040000	0,879364	4,399719
0,041000	0,790405	3,925629
0,042000	0,856018	4,677734
0,043000	0,820007	4,999847
0,044000	0,835419	4,999847
0,045000	0,810242	4,999847
0,046000	0,802002	4,999847
0,047000	0,864563	4,999847
0,048000	0,798950	4,999847
0,049000	0,891571	3,453217
0,050000	0,787506	3,378906
0,051000	0,912933	3,930664
0,052000	0,776367	3,954773
0,053000	0,922241	4,999847
0,054000	0,792999	4,999847
0,055000	0,896912	4,999847
0,056000	0,825195	4,999847
0,057000	0,874329	4,999847
0,058000	0,854187	4,672241
0,059000	0,855255	3,043518
0,060000	0,879974	3,754120
0,061000	0,838318	4,342041
0,062000	0,905151	4,236603
0,063000	0,823669	4,999847
0,064000	0,926666	4,999847
0,065000	0,811005	4,999847
0,066000	0,946198	4,999847
0,067000	0,799255	4,999847
0,068000	0,941010	4,904175
0,069000	0,829773	4,016418
0,070000	0,916138	4,198303
0,071000	0,861053	4,939423
0,072000	0,894623	2,815247
0,073000	0,888977	4,999847
0,074000	0,875702	4,999847
0,075000	0,914917	4,999847
0,076000	0,859070	4,999847
0,077000	0,937500	4,999847
0,078000	0,845337	4,197693
0,079000	0,959015	3,429413
0,080000	0,832977	2,889709
0,081000	0,977936	4,508209
0,082000	0,831757	4,875793
0,083000	0,958862	4,999847
0,084000	0,865326	4,999847
0,085000	0,935211	4,999847
0,086000	0,895844	4,999847
0,087000	0,914917	4,999847
0,088000	0,923309	4,999847
0,089000	0,896149	4,313812
0,090000	0,948181	3,197937
0,091000	0,880890	4,161530
0,092000	0,970917	2,956238
0,093000	0,867157	4,999847
0,094000	0,991516	4,999847
0,095000	0,855408	4,999847
0,096000	1,003571	4,999847
0,097000	0,868683	4,999847
0,098000	0,978088	4,631805
0,099000	0,901489	3,208618
0,100000	0,955505	3,306427
0,101000	0,931091	4,702454
0,102000	0,936127	4,486694
0,103000	0,957947	4,999847
0,104000	0,918884	4,999847
0,105000	0,982513	4,999847
0,106000	0,903931	4,999847
0,107000	1,004791	4,999847
0,108000	0,890961	4,999847
0,109000	1,025696	4,595032
0,110000	0,880280	3,356934
0,111000	1,025085	4,465942
0,112000	0,907745	3,372955
0,113000	1,001587	4,999847
0,114000	0,939636	4,999847
0,115000	0,979919	4,999847
0,116000	0,968781	4,999847
0,117000	0,960999	4,999847
0,118000	0,995026	4,741058
0,119000	0,944672	4,089508
0,120000	1,019440	2,731628
0,121000	0,931091	4,512177
0,122000	1,044006	4,999847
0,123000	0,920258	4,999847
0,124000	1,072235	4,999847
0,125000	0,877991	4,999847
0,126000	1,021881	4,999847
0,127000	0,933685	4,999847
0,128000	0,915375	4,689484
0,129000	0,904694	3,935242
0,130000	0,920258	3,164520
0,131000	0,968475	4,105835
0,132000	0,965424	3,490143
0,133000	1,020203	4,999847
0,134000	0,961304	4,999847
0,135000	1,050110	4,999847
0,136000	0,948334	4,999847
0,137000	1,071930	4,999847
0,138000	0,935974	3,969269
0,139000	1,082764	3,841248
0,140000	0,945129	2,722778
0,141000	1,055603	4,481049
0,142000	0,969543	4,999847
0,143000	1,030731	4,999847
0,144000	1,005249	4,999847
0,145000	1,011963	4,999847
0,146000	1,033630	4,999847
0,147000	0,993958	4,999847
0,148000	1,058655	4,842072
0,149000	0,977020	4,951324
0,150000	0,957031	3,572845
0,151000	0,967865	4,166718
0,152000	0,971985	3,948517
0,153000	0,973663	4,999847
0,154000	1,094666	4,999847
0,155000	0,959778	4,999847
0,156000	1,095428	4,999847
0,157000	0,950012	4,999847
0,158000	1,074066	4,263458
0,159000	0,982819	3,761139
0,160000	1,050262	4,256439
0,161000	1,013489	3,405914
0,162000	1,030121	4,999847
0,163000	1,042786	4,999847
0,164000	1,012268	4,999847
0,165000	1,068726	4,999847
0,166000	0,996552	4,999847
0,167000	1,088867	4,999847
0,168000	0,982056	4,999847
0,169000	1,099396	4,859924
0,170000	0,969543	3,296814
0,171000	1,101227	4,309692
0,172000	0,975800	3,668213
0,173000	1,071472	4,999847
0,174000	1,009521	4,999847
0,175000	1,050720	4,999847
0,176000	1,041718	4,999847
0,177000	1,033325	4,999847
0,178000	1,070099	4,091644
0,179000	1,017609	3,914185
0,180000	1,091614	2,974548
0,181000	1,003418	4,428253
0,182000	1,102142	4,823456
0,183000	0,991058	4,999847
0,184000	1,105652	4,999847
0,185000	0,980072	4,999847
0,186000	1,092987	4,999847
0,187000	1,001282	4,999847
0,188000	1,068420	4,999847
0,189000	1,035919	4,605408
0,190000	1,050110	3,508759
0,191000	1,067657	3,531799
0,192000	1,035309	3,278351
0,193000	1,091766	4,787750
0,194000	1,021271	4,999847
0,195000	1,102753	4,999847
0,196000	1,008453	4,999847
0,197000	0,940094	4,999847
0,198000	0,911255	4,746552
0,199000	0,898743	4,202118
0,200000	0,893402	3,561707
0,201000	0,890808	4,399719
0,202000	0,890198	4,999847
0,203000	0,889740	4,999847
0,204000	0,890045	4,999847
0,205000	0,889740	4,999847
0,206000	0,889893	4,999847
0,207000	0,890045	4,999847
0,208000	0,890503	4,999847
0,209000	0,890503	4,999847
0,210000	0,890350	3,265228
0,211000	0,889893	4,584961
0,212000	0,890045	3,562927
0,213000	0,890045	4,999847
0,214000	0,889740	4,999847
0,215000	0,889587	4,999847
0,216000	0,889893	4,999847
0,217000	0,720673	4,999847
0,218000	0,607758	4,999847
0,219000	0,580139	4,352264
0,220000	0,545197	2,350616
0,221000	0,558319	3,431549
0,222000	0,533905	4,664764
0,223000	0,552826	4,999847
0,224000	0,537567	4,999847
0,225000	0,549011	4,999847
0,226000	0,543060	4,999847
0,227000	0,547028	4,999847
0,228000	0,550079	4,999847
0,229000	0,544891	4,487915
0,230000	0,554962	2,785339
0,231000	0,478516	4,405823
0,232000	0,533295	3,918610
0,233000	0,529175	4,970093
0,234000	0,559540	4,999847
0,235000	0,536499	4,999847
0,236000	0,568542	4,999847
0,237000	0,541077	4,999847
0,238000	0,565796	4,999847
0,239000	0,549622	3,876495
0,240000	0,562592	3,089447
0,241000	0,556946	3,533630
0,242000	0,556946	4,999847
0,243000	0,563049	4,999847
0,244000	0,554352	4,999847
0,245000	0,569916	4,999847
0,246000	0,551147	4,999847
0,247000	0,576172	4,999847
0,248000	0,548248	4,999847
0,249000	0,582886	4,367371
0,250000	0,545197	3,692017
0,251000	0,584106	4,004974
0,252000	0,553589	3,746185
0,253000	0,578308	4,999847
0,254000	0,562439	4,999847
0,255000	0,572968	4,999847
0,256000	0,570831	4,999847
0,257000	0,568085	4,999847
0,258000	0,578461	4,755402
0,259000	0,563507	3,201141
0,260000	0,586395	2,619629
0,261000	0,559540	3,645020
0,262000	0,594330	4,926605
0,263000	0,555725	4,999847
0,264000	0,601807	4,999847
0,265000	0,554504	4,999847
0,266000	0,597839	4,999847
0,267000	0,565643	4,999847
0,268000	0,591278	4,999847
0,269000	0,576935	4,787903
0,270000	0,585022	2,656555
0,271000	0,587311	4,904175
0,272000	0,579529	3,606415
0,273000	0,596619	4,999847
0,274000	0,516357	4,999847
0,275000	0,581055	4,999847
0,276000	0,557556	4,999847
0,277000	0,608978	4,999847
0,278000	0,561676	4,999847
0,279000	0,619812	3,153229
0,280000	0,566559	3,168945
0,281000	0,611572	4,830475
0,282000	0,579987	4,396057
0,283000	0,602875	4,999847
0,284000	0,592041	4,999847
0,285000	0,595703	4,999847
0,286000	0,603943	4,999847
0,287000	0,588837	4,999847
0,288000	0,614319	4,999847
0,289000	0,581207	4,001007
0,290000	0,623322	3,056030
0,291000	0,575409	4,970551
0,292000	0,633698	3,732910
0,293000	0,569763	4,999847
0,294000	0,635223	4,999847
0,295000	0,580292	4,999847
0,296000	0,624237	4,999847
0,297000	0,594788	4,999847
0,298000	0,613861	4,999847
0,299000	0,608063	2,984314
0,300000	0,604706	3,128815
0,301000	0,620575	4,715271
0,302000	0,597076	4,842834
0,303000	0,632172	4,999847
0,304000	0,589142	4,999847
0,305000	0,643463	4,999847
0,306000	0,582581	4,999847
0,307000	0,653687	4,999847
0,308000	0,579071	4,999847
0,309000	0,648804	4,496307
0,310000	0,596008	3,616028
0,311000	0,636597	4,489288
0,312000	0,594177	3,599548
0,313000	0,617676	4,999847
0,314000	0,623474	4,999847
0,315000	0,613708	4,999847
0,316000	0,639801	4,999847
0,317000	0,606232	4,999847
0,318000	0,652771	4,999847
0,319000	0,597992	2,815094
0,320000	0,665131	4,028015
0,321000	0,590363	3,135681
0,322000	0,675659	4,999847
0,323000	0,594025	4,999847
0,324000	0,661926	4,999847
0,325000	0,612640	4,999847
0,326000	0,648499	4,999847
0,327000	0,629883	4,999847
0,328000	0,635834	4,999847
0,329000	0,645599	4,849243
0,330000	0,625000	3,666382
0,331000	0,660095	4,761047
0,332000	0,614624	3,174286
0,333000	0,574799	4,999847
0,334000	0,559692	4,999847
0,335000	0,667725	4,999847
0,336000	0,590210	4,999847
0,337000	0,687714	4,999847
0,338000	0,610046	4,999847
0,339000	0,674286	2,858276
0,340000	0,630951	3,372955
0,341000	0,659790	3,993225
0,342000	0,649872	4,284973
0,343000	0,646820	4,999847
0,344000	0,666351	4,999847
0,345000	0,634155	4,999847
0,346000	0,681763	4,999847
0,347000	0,623474	4,999847
0,348000	0,696106	4,999847
0,349000	0,614166	4,262238
0,350000	0,709381	4,293671
0,351000	0,606995	4,068146
0,352000	0,703583	3,351288
0,353000	0,629730	4,999847
0,354000	0,686035	4,999847
0,355000	0,650940	4,999847
0,356000	0,670776	4,999847
0,357000	0,670013	4,999847
0,358000	0,640106	4,999847
0,359000	0,675659	2,983856
0,360000	0,638885	4,266663
0,361000	0,701752	3,470459
0,362000	0,631409	4,864197
0,363000	0,718842	4,999847
0,364000	0,621643	4,999847
0,365000	0,732880	4,999847
0,366000	0,624847	4,999847
0,367000	0,715637	4,999847
0,368000	0,648956	4,999847
0,369000	0,697021	4,965363
0,370000	0,670929	3,641663
0,371000	0,681000	4,440765
0,372000	0,691071	3,854218
0,373000	0,666199	4,999847
0,374000	0,709991	4,999847
0,375000	0,653229	4,999847
0,376000	0,727081	4,999847
0,377000	0,641785	4,999847
0,378000	0,743408	4,902802
0,379000	0,631409	2,865601
0,380000	0,749512	3,478699
0,381000	0,646210	4,888306
0,382000	0,728455	4,698181
0,383000	0,672150	4,999847
0,384000	0,708313	4,999847
0,385000	0,693512	4,999847
0,386000	0,693054	4,999847
0,387000	0,715332	4,999847
0,388000	0,677490	4,999847
0,389000	0,733948	3,855743
0,390000	0,663605	3,030243
0,391000	0,751038	4,654694
0,392000	0,650940	3,548126
0,393000	0,767059	4,999847
0,394000	0,641174	4,999847
0,395000	0,750732	4,999847
0,396000	0,663147	4,999847
0,397000	0,737762	4,999847
0,398000	0,692749	4,571991
0,399000	0,720062	2,972260
0,400000	0,717010	4,611511
0,401000	0,703430	2,890472
0,402000	0,738678	4,797211
0,403000	0,688477	4,999847
0,404000	0,758820	4,999847
0,405000	0,674896	4,999847
0,406000	0,776978	4,999847
0,407000	0,663147	4,999847
0,408000	0,793304	4,835815
0,409000	0,663452	4,692383
0,410000	0,774841	4,704742
0,411000	0,692444	3,560333
0,412000	0,752716	4,194031
0,413000	0,718842	4,889069
0,414000	0,733032	4,999847
0,415000	0,742798	4,999847
0,416000	0,715942	4,999847
0,417000	0,764618	4,999847
0,418000	0,700684	4,675751
0,419000	0,784760	3,118439
0,420000	0,687256	2,787628
0,421000	0,803223	2,932281
0,422000	0,675659	4,999847
0,423000	0,812836	4,999847
0,424000	0,690308	4,999847
0,425000	0,788727	4,999847
0,426000	0,720367	4,999847
0,427000	0,766296	4,999847
0,428000	0,746155	4,692993
0,429000	0,746765	4,999847
0,430000	0,770569	4,871979
0,431000	0,731354	3,462372
0,432000	0,793304	3,943634
0,433000	0,715637	4,999847
0,434000	0,812531	4,999847
0,435000	0,675812	4,999847
0,436000	0,768890	4,999847
0,437000	0,640564	4,999847
0,438000	0,806427	4,081879
0,439000	0,709839	3,154144
0,440000	0,798187	2,482300
0,441000	0,746765	4,250946
0,442000	0,780487	4,999847
0,443000	0,774536	4,999847
0,444000	0,762177	4,999847
0,445000	0,798950	4,999847
0,446000	0,745697	4,999847
0,447000	0,805969	4,999847
0,448000	0,716705	4,776459
0,449000	0,834808	4,781799
0,450000	0,715942	3,924713
0,451000	0,858765	4,619446
0,452000	0,717621	4,210663
0,453000	0,842133	4,999847
0,454000	0,749969	4,999847
0,455000	0,818787	4,999847
0,456000	0,779419	4,999847
0,457000	0,798187	4,999847
0,458000	0,806274	4,580536
0,459000	0,757599	3,806458
0,460000	0,820923	4,061127
0,461000	0,760040	3,342133
0,462000	0,850220	4,999847
0,463000	0,749817	4,999847
0,464000	0,872040	4,999847
0,465000	0,738525	4,999847
0,466000	0,883026	4,999847
0,467000	0,750885	4,999847
0,468000	0,858002	4,999847
0,469000	0,783539	4,535522
0,470000	0,836029	2,509613
0,471000	0,812531	3,727417
0,472000	0,815430	4,350586
0,473000	0,838318	4,452057
0,474000	0,798035	4,999847
0,475000	0,861206	4,999847
0,476000	0,783386	4,999847
0,477000	0,883026	4,999847
0,478000	0,770416	4,670105
0,479000	0,902252	4,457550
0,480000	0,758972	4,279175
0,481000	0,901337	3,847504
0,482000	0,786285	4,999847
0,483000	0,875854	4,999847
0,484000	0,817108	4,999847
0,485000	0,853882	4,999847
0,486000	0,845337	4,999847
0,487000	0,835724	4,999847
0,488000	0,871277	4,999847
0,489000	0,818787	4,645844
0,490000	0,894928	2,927094
0,491000	0,803528	4,917755
0,492000	0,914459	3,677063
0,493000	0,790710	4,999847
0,494000	0,933533	4,999847
0,495000	0,786743	4,999847
0,496000	0,917511	4,999847
0,497000	0,820465	4,999847
0,498000	0,879669	4,647522
0,499000	0,845184	3,430176
0,500000	0,870056	3,358307
0,501000	0,877380	3,380432
0,502000	0,853729	4,999847
0,503000	0,903015	4,999847
0,504000	0,838165	4,999847
0,505000	0,925598	4,999847
0,506000	0,824738	4,999847
0,507000	0,946045	4,999847
0,508000	0,812683	4,999847
0,509000	0,960999	4,926453
0,510000	0,822754	3,486481
0,511000	0,934753	4,985962
0,512000	0,855560	4,258575
0,513000	0,911865	4,813690
0,514000	0,885162	4,999847
0,515000	0,892181	4,999847
0,516000	0,911865	4,999847
0,517000	0,874634	4,999847
0,518000	0,936432	4,999847
0,519000	0,859528	4,203644
0,520000	0,958099	3,645477
0,521000	0,846252	4,457550
0,522000	0,978088	4,999847
0,523000	0,835114	4,999847
0,524000	0,980377	4,999847
0,525000	0,859985	4,999847
0,526000	0,954437	4,999847
0,527000	0,893097	4,999847
0,528000	0,933380	4,925537
0,529000	0,921326	4,412842
0,530000	0,914612	3,562469
0,531000	0,948486	4,606018
0,532000	0,897980	3,943176
0,533000	0,971222	4,999847
0,534000	0,868225	4,999847
0,535000	0,986176	4,999847
0,536000	0,852966	4,999847
0,537000	1,005554	4,999847
0,538000	0,750275	4,999847
0,539000	0,950928	3,454285
0,540000	0,876923	3,045197
0,541000	0,965576	3,521271
0,542000	0,924377	4,919586
0,543000	0,952606	4,999847
0,544000	0,956116	4,999847
0,545000	0,935974	4,999847
0,546000	0,982056	4,999847
0,547000	0,920563	4,999847
0,548000	1,004791	4,999847
0,549000	0,906677	4,300385
0,550000	1,027222	2,956543
0,551000	0,894928	4,759216
0,552000	1,046753	3,950806
0,553000	0,902405	4,892731
0,554000	1,021881	4,999847
0,555000	0,935669	4,999847
0,556000	0,999756	4,999847
0,557000	0,965881	4,999847
0,558000	0,979462	4,877014
0,559000	0,993195	4,544220
0,560000	0,961151	4,226227
0,561000	1,017914	3,978729
0,562000	0,945282	4,999847
0,563000	1,041718	4,999847
0,564000	0,931396	4,999847
0,565000	1,063232	4,999847
0,566000	0,918884	4,999847
0,567000	1,063538	4,999847
0,568000	0,939484	4,999847
0,569000	1,039429	4,014587
0,570000	0,970612	2,200775
0,571000	1,017914	4,574432
0,572000	1,000671	3,751068
0,573000	0,998230	4,999847
0,574000	1,026611	4,999847
0,575000	0,980072	4,999847
0,576000	1,051941	4,999847
0,577000	0,964050	4,999847
0,578000	1,073456	4,862976
0,579000	0,949860	3,963623
0,580000	1,089325	4,221497
0,581000	0,939178	4,342651
0,582000	1,072388	4,924774
0,583000	0,971832	4,999847
0,584000	1,048126	4,999847
0,585000	1,002350	4,999847
0,586000	1,026917	4,999847
0,587000	0,953217	4,999847
0,588000	0,967865	4,999847
0,589000	0,973816	4,970551
0,590000	0,976410	3,321533
0,591000	1,093140	4,372101
0,592000	0,967255	3,346710
0,593000	1,061859	4,999847
0,594000	0,997925	4,999847
0,595000	1,040192	4,999847
0,596000	1,027069	4,999847
0,597000	1,021271	4,999847
0,598000	1,055450	4,779358
0,599000	1,004028	3,861542
0,600000	1,079407	4,064789
0,601000	0,988464	4,197998
0,602000	1,096344	4,688263
0,603000	0,975037	4,999847
0,604000	1,102905	4,999847
0,605000	0,961761	4,999847
0,606000	1,085663	4,999847
0,607000	0,993042	4,999847
0,608000	1,061249	4,999847
0,609000	1,025085	3,971100
0,610000	1,041718	3,247986
0,611000	1,055298	4,505005
0,612000	1,024933	3,530121
0,613000	1,081085	4,867859
0,614000	1,009827	4,999847
0,615000	1,098022	4,999847
0,616000	0,995789	4,999847
0,617000	1,105347	4,999847
0,618000	0,984344	4,999847
0,619000	1,107025	3,707886
0,620000	0,982513	2,914276
0,621000	1,079559	4,999847
0,622000	1,017303	4,103088
0,623000	1,059265	4,999847
0,624000	1,050873	4,999847
0,625000	1,042328	4,999847
0,626000	1,080170	4,999847
0,627000	1,027527	4,999847
0,628000	1,098938	4,999847
0,629000	1,015015	3,642426
0,630000	1,107635	3,032074
0,631000	1,001892	3,655853
0,632000	1,107635	3,273010
0,633000	0,992432	4,999847
0,634000	0,934906	4,999847
0,635000	0,910950	4,999847
0,636000	0,900879	4,999847
0,637000	0,894623	4,999847
0,638000	0,892029	4,999847
0,639000	0,891418	3,482361
0,640000	0,828094	2,216644
0,641000	0,839539	3,193512
0,642000	0,869446	4,561615
0,643000	0,882111	4,999847
0,644000	0,887146	4,999847
0,645000	0,889282	4,999847
0,646000	0,890198	4,999847
0,647000	0,890350	4,999847
0,648000	0,890656	4,999847
0,649000	0,890961	4,163513
0,650000	0,890961	4,233856
0,651000	0,890808	4,999847
0,652000	0,890808	3,018188
0,653000	0,890808	4,990997
0,654000	0,743866	4,999847
0,655000	0,626068	4,999847
0,656000	0,579834	4,999847
0,657000	0,530396	4,999847
0,658000	0,543823	4,458466
0,659000	0,533905	3,194733
0,660000	0,527496	2,808228
0,661000	0,523987	4,514923
0,662000	0,551453	4,772797
0,663000	0,530243	4,999847
0,664000	0,555267	4,999847
0,665000	0,537567	4,999847
0,666000	0,553131	4,999847
0,667000	0,543976	4,999847
0,668000	0,550079	4,999847
0,669000	0,550079	4,640198
0,670000	0,547791	3,041992
0,671000	0,555878	4,288635
0,672000	0,545502	3,539124
0,673000	0,561981	4,999847
0,674000	0,526886	4,999847
0,675000	0,560913	4,999847
0,676000	0,537720	4,999847
0,677000	0,572052	4,999847
0,678000	0,540924	4,643097
0,679000	0,569611	3,990936
0,680000	0,549622	3,467865
0,681000	0,565948	4,999847
0,682000	0,557098	4,999847
0,683000	0,551147	4,999847
0,684000	0,538330	4,999847
0,685000	0,546722	4,999847
0,686000	0,566711	4,999847
0,687000	0,542603	4,999847
0,688000	0,573425	4,999847
0,689000	0,549164	4,674530
0,690000	0,584106	3,532410
0,691000	0,547943	4,438171
0,692000	0,589905	3,809967
0,693000	0,552826	4,999847
0,694000	0,583496	4,999847
0,695000	0,563049	4,999847
0,696000	0,578766	4,999847
0,697000	0,571899	4,999847
0,698000	0,572968	4,596252
0,699000	0,581818	3,862000
0,700000	0,568085	4,088593
0,701000	0,589600	3,290405
0,702000	0,563812	4,999847
0,703000	0,597382	4,999847
0,704000	0,560150	4,999847
0,705000	0,605316	4,999847
0,706000	0,556335	4,999847
0,707000	0,605621	4,999847
0,708000	0,566406	4,999847
0,709000	0,597687	4,589233
0,710000	0,577393	3,599091
0,711000	0,590515	3,942719
0,712000	0,588531	3,972168
0,713000	0,583649	4,999847
0,714000	0,598297	4,999847
0,715000	0,578461	4,999847
0,716000	0,606995	4,999847
0,717000	0,569611	4,999847
0,718000	0,612640	4,820862
0,719000	0,564423	3,428497
0,720000	0,621185	3,157806
0,721000	0,563507	3,590851
0,722000	0,616302	4,999847
0,723000	0,582123	4,999847
0,724000	0,606842	4,999847
0,725000	0,590515	4,999847
0,726000	0,599518	4,999847
0,727000	0,600891	4,999847
0,728000	0,590057	4,999847
0,729000	0,611877	4,711151
0,730000	0,583038	3,867340
0,731000	0,622559	3,908386
0,732000	0,576935	4,296417
0,733000	0,632782	4,397888
0,734000	0,571442	4,999847
0,735000	0,641022	4,999847
0,736000	0,578613	4,999847
0,737000	0,628052	4,999847
0,738000	0,591278	4,942627
0,739000	0,617676	3,861847
0,740000	0,589294	3,990631
0,741000	0,601349	3,021240
0,742000	0,615387	4,999847
0,743000	0,527344	4,999847
0,744000	0,600586	4,999847
0,745000	0,578613	4,999847
0,746000	0,637054	4,999847
0,747000	0,581970	4,999847
0,748000	0,652466	4,584351
0,749000	0,577545	4,177704
0,750000	0,653534	3,647766
0,751000	0,591888	3,724365
0,752000	0,641327	3,704834
0,753000	0,608368	4,652252
0,754000	0,629578	4,999847
0,755000	0,623932	4,999847
0,756000	0,619049	4,999847
0,757000	0,638428	4,999847
0,758000	0,608978	4,343567
0,759000	0,651398	3,540497
0,760000	0,600586	4,066315
0,761000	0,663910	3,374634
0,762000	0,584717	4,999847
0,763000	0,672150	4,999847
0,764000	0,588074	4,999847
0,765000	0,666962	4,999847
0,766000	0,608063	4,999847
0,767000	0,652771	4,999847
0,768000	0,626068	4,734802
0,769000	0,640411	4,084473
0,770000	0,642853	3,820343
0,771000	0,628357	4,744263
0,772000	0,658722	4,370422
0,773000	0,617828	4,999847
0,774000	0,672607	4,999847
0,775000	0,609131	4,999847
0,776000	0,685883	4,999847
0,777000	0,599976	4,999847
0,778000	0,696564	4,912262
0,779000	0,605621	4,286957
0,780000	0,680389	4,381866
0,781000	0,626831	3,218689
0,782000	0,664673	4,999847
0,783000	0,645752	4,999847
0,784000	0,650940	4,999847
0,785000	0,663605	4,999847
0,786000	0,638733	4,999847
0,787000	0,679626	4,999847
0,788000	0,627136	4,999847
0,789000	0,694580	4,757538
0,790000	0,617065	4,068298
0,791000	0,708466	4,288788
0,792000	0,607758	4,221344
0,793000	0,710602	4,999847
0,794000	0,624084	4,999847
0,795000	0,691833	4,999847
0,796000	0,645752	4,999847
0,797000	0,675049	4,999847
0,798000	0,666046	4,118500
0,799000	0,660858	3,789520
0,800000	0,684662	4,358368
0,801000	0,647736	3,625336
0,802000	0,701294	4,908752
0,803000	0,635681	4,999847
0,804000	0,717163	4,999847
0,805000	0,625000	4,999847
0,806000	0,731201	4,999847
0,807000	0,618286	4,999847
0,808000	0,722504	4,999847
0,809000	0,643158	4,039917
0,810000	0,702972	3,914490
0,811000	0,666199	4,729156
0,812000	0,685730	4,218903
0,813000	0,686951	4,999847
0,814000	0,670624	4,999847
0,815000	0,706482	4,999847
0,816000	0,657043	4,999847
0,817000	0,723877	4,999847
0,818000	0,645142	4,165039
0,819000	0,740356	3,631439
0,820000	0,633698	3,659821
0,821000	0,755005	3,499146
0,822000	0,638885	4,999847
0,823000	0,734558	4,999847
0,824000	0,664673	4,999847
0,825000	0,714722	4,999847
0,826000	0,688629	4,999847
0,827000	0,696716	4,999847
0,828000	0,709534	4,999847
0,829000	0,681305	4,383850
0,830000	0,729980	3,125763
0,831000	0,667114	4,905090
0,832000	0,747833	4,236755
0,833000	0,654755	4,999847
0,834000	0,764618	4,999847
0,835000	0,643463	4,999847
0,836000	0,768738	4,999847
0,837000	0,661163	4,999847
0,838000	0,746307	4,918671
0,839000	0,688019	4,051361
0,840000	0,726318	3,005371
0,841000	0,712280	3,766937
0,842000	0,698700	4,999847
0,843000	0,729980	4,999847
0,844000	0,690765	4,999847
0,845000	0,655670	4,999847
0,846000	0,632019	4,999847
0,847000	0,720978	4,999847
0,848000	0,644379	4,921112
0,849000	0,780792	4,844055
0,850000	0,652924	2,959747
0,851000	0,780182	4,668579
0,852000	0,686035	3,313141
0,853000	0,758972	4,999847
0,854000	0,713501	4,999847
0,855000	0,739136	4,999847
0,856000	0,737915	4,999847
0,857000	0,721588	4,999847
0,858000	0,760956	4,773407
0,859000	0,705566	4,004669
0,860000	0,781403	3,191833
0,861000	0,691986	4,457092
0,862000	0,800018	4,999847
0,863000	0,679626	4,999847
0,864000	0,817108	4,999847
0,865000	0,683441	4,999847
0,866000	0,796051	4,999847
0,867000	0,713959	4,999847
0,868000	0,773468	4,999847
0,869000	0,741425	4,041901
0,870000	0,753784	2,578888
0,871000	0,766296	4,999847
0,872000	0,736389	4,154663
0,873000	0,788879	4,927826
0,874000	0,720673	4,999847
0,875000	0,809174	4,999847
0,876000	0,707245	4,999847
0,877000	0,828400	4,999847
0,878000	0,695038	4,999847
0,879000	0,835266	4,222565
0,880000	0,712585	3,274384
0,881000	0,810394	3,914948
0,882000	0,743256	4,999847
0,883000	0,788879	4,999847
0,884000	0,771027	4,999847
0,885000	0,769653	4,999847
0,886000	0,795593	4,999847
0,887000	0,752716	4,999847
0,888000	0,818634	4,999847
0,889000	0,737915	4,706421
0,890000	0,838928	3,056641
0,891000	0,724945	3,231354
0,892000	0,858459	3,804474
0,893000	0,714264	4,999847
0,894000	0,851288	4,999847
0,895000	0,745087	4,999847
0,896000	0,789948	4,999847
0,897000	0,759277	4,999847
0,898000	0,798798	4,999847
0,899000	0,799255	4,044037
0,900000	0,785980	3,746948
0,901000	0,826263	4,117889
0,902000	0,770416	4,653778
0,903000	0,848999	4,999847
0,904000	0,756683	4,999847
0,905000	0,870056	4,999847
0,906000	0,744324	4,999847
0,907000	0,888214	4,999847
0,908000	0,746002	4,999847
0,909000	0,867920	3,462982
0,910000	0,778351	3,611450
0,911000	0,844421	4,999847
0,912000	0,808105	3,880005
0,913000	0,823822	4,874420
0,914000	0,834656	4,999847
0,915000	0,806122	4,999847
0,916000	0,859070	4,999847
0,917000	0,790405	4,999847
0,918000	0,881042	4,799805
0,919000	0,777435	3,540802
0,920000	0,901184	3,446655
0,921000	0,765839	3,843231
0,922000	0,911102	4,999847
0,923000	0,781555	4,999847
0,924000	0,885925	4,999847
0,925000	0,813293	4,999847
0,926000	0,863495	4,999847
0,927000	0,842590	4,999847
0,928000	0,844116	4,999847
0,929000	0,868683	3,809662
0,930000	0,826721	3,075867
0,931000	0,892029	3,636932
0,932000	0,812225	3,945312
0,933000	0,914154	4,999847
0,934000	0,798950	4,999847
0,935000	0,933838	4,999847
0,936000	0,788116	4,999847
0,937000	0,929718	4,999847
0,938000	0,818024	4,999847
0,939000	0,905304	3,323364
0,940000	0,848846	3,279266
0,941000	0,883331	4,096222
0,942000	0,877228	4,999847
0,943000	0,864410	4,999847
0,944000	0,902710	4,999847
0,945000	0,848236	4,999847
0,946000	0,925903	4,999847
0,947000	0,804901	4,999847
0,948000	0,883026	4,999847
0,949000	0,794525	3,538971
0,950000	0,954742	3,322449
0,951000	0,803375	4,057465
0,952000	0,940247	3,929596
0,953000	0,850525	4,999847
0,954000	0,910645	4,999847
0,955000	0,878296	4,999847
0,956000	0,900726	4,999847
0,957000	0,910797	4,999847
0,958000	0,884247	4,793091
0,959000	0,935516	3,076477
0,960000	0,869141	3,198090
0,961000	0,959167	4,063416
0,962000	0,855865	4,999847
0,963000	0,979309	4,999847
0,964000	0,843353	4,999847
0,965000	0,991364	4,999847
0,966000	0,856323	4,999847
0,967000	0,965881	4,999847
0,968000	0,889587	4,999847
0,969000	0,942993	3,808746
0,970000	0,919037	3,685150
0,971000	0,923615	4,555969
0,972000	0,946045	4,142151
0,973000	0,906525	4,999847
0,974000	0,970001	4,999847
0,975000	0,891876	4,999847
0,976000	0,992126	4,999847
0,977000	0,879059	4,999847
0,978000	1,012573	4,999847
0,979000	0,867615	3,672333
0,980000	1,011810	4,022980
0,981000	0,894623	3,371582
0,982000	0,987549	4,999847
0,983000	0,926361	4,999847
0,984000	0,965729	4,999847
0,985000	0,955353	4,999847
0,986000	0,947113	4,999847
0,987000	0,981445	4,999847
0,988000	0,930786	4,999847
0,989000	1,005249	3,915558
0,990000	0,916443	3,747711
0,991000	1,027985	4,483795
0,992000	0,904083	3,558960
0,993000	1,031494	4,999847
0,994000	0,891876	4,999847
0,995000	1,029968	4,999847
0,996000	0,931549	4,999847
0,997000	1,009674	4,999847
0,998000	0,963745	4,627075
0,999000	0,989075	3,794708

