LabVIEW Measurement	
Writer_Version	2
Reader_Version	2
Separator	Tab
Decimal_Separator	,
Multi_Headings	Yes
X_Columns	One
Time_Pref	Absolute
Operator	d.nicolai
Date	2023/11/09
Time	16:46:38,4425126999997713665
***End_of_Header***	
	
Channels	2		
Samples	1000	1000	
Date	2023/11/09	2023/11/09	
Time	16:46:45,8075122999995823719	16:46:45,8075122999995823719	
Y_Unit_Label	Volts	Volts	
X_Dimension	Time	Time	
X0	0,0000000000000000E+0	0,0000000000000000E+0	
Delta_X	0,001000	0,001000	
***End_of_Header***			
X_Value	powebox	triggerbox	Comment
0,000000	0,694885	0,986633
0,001000	0,609436	4,600525
0,002000	0,604858	4,999847
0,003000	0,595703	4,999847
0,004000	0,660553	4,999847
0,005000	0,644836	4,999847
0,006000	0,658112	4,999847
0,007000	0,665741	4,999847
0,008000	0,648346	4,999847
0,009000	0,682068	4,374695
0,010000	0,638275	2,615051
0,011000	0,695648	3,669891
0,012000	0,628662	4,090881
0,013000	0,709381	4,999847
0,014000	0,620422	4,999847
0,015000	0,718384	4,999847
0,016000	0,630035	4,999847
0,017000	0,701599	4,999847
0,018000	0,650940	4,999847
0,019000	0,685577	3,004913
0,020000	0,670013	3,028564
0,021000	0,671844	4,844208
0,022000	0,687714	4,999847
0,023000	0,659332	4,999847
0,024000	0,703888	4,999847
0,025000	0,647430	4,999847
0,026000	0,719757	4,999847
0,027000	0,638123	4,999847
0,028000	0,733490	4,999847
0,029000	0,628662	4,342041
0,030000	0,731964	3,301849
0,031000	0,648499	4,053802
0,032000	0,714111	4,045410
0,033000	0,670929	4,999847
0,034000	0,697632	4,999847
0,035000	0,691071	4,999847
0,036000	0,682526	4,999847
0,037000	0,710602	4,999847
0,038000	0,670013	4,999847
0,039000	0,727539	3,310852
0,040000	0,657043	2,592316
0,041000	0,738678	4,746246
0,042000	0,642853	4,999847
0,043000	0,753632	4,999847
0,044000	0,640106	4,999847
0,045000	0,742187	4,999847
0,046000	0,666351	4,999847
0,047000	0,722809	4,999847
0,048000	0,689240	4,999847
0,049000	0,706329	3,644257
0,050000	0,711212	2,636414
0,051000	0,691071	3,676147
0,052000	0,730896	3,885498
0,053000	0,677032	4,872894
0,054000	0,748901	4,999847
0,055000	0,665588	4,999847
0,056000	0,765839	4,999847
0,057000	0,654602	4,999847
0,058000	0,778046	4,977722
0,059000	0,662537	3,027649
0,060000	0,755615	3,130646
0,061000	0,689392	4,805908
0,062000	0,735779	4,762726
0,063000	0,713654	4,999847
0,064000	0,718231	4,999847
0,065000	0,735626	4,999847
0,066000	0,702820	4,999847
0,067000	0,755920	4,999847
0,068000	0,688171	4,999847
0,069000	0,773926	4,177399
0,070000	0,675354	3,137665
0,071000	0,791168	4,999847
0,072000	0,664520	3,902740
0,073000	0,791473	4,999847
0,074000	0,686340	4,999847
0,075000	0,769348	4,999847
0,076000	0,713959	4,999847
0,077000	0,748749	4,999847
0,078000	0,739288	4,847260
0,079000	0,729980	2,707062
0,080000	0,760498	2,705231
0,081000	0,713196	4,999847
0,082000	0,781097	4,532471
0,083000	0,676727	4,999847
0,084000	0,790100	4,999847
0,085000	0,682983	4,999847
0,086000	0,815582	4,999847
0,087000	0,680084	4,999847
0,088000	0,806274	4,999847
0,089000	0,711975	4,067230
0,090000	0,781403	4,079437
0,091000	0,739288	3,516083
0,092000	0,760651	3,956299
0,093000	0,765381	4,999847
0,094000	0,744476	4,999847
0,095000	0,786133	4,999847
0,096000	0,727386	4,999847
0,097000	0,803070	4,999847
0,098000	0,708771	4,999847
0,099000	0,823669	3,449402
0,100000	0,700684	3,008118
0,101000	0,838776	4,901733
0,102000	0,703583	4,827271
0,103000	0,814514	4,999847
0,104000	0,647278	4,999847
0,105000	0,729065	4,999847
0,106000	0,735016	4,999847
0,107000	0,763397	4,999847
0,108000	0,786591	4,999847
0,109000	0,754547	4,354095
0,110000	0,813293	3,869781
0,111000	0,740204	4,600983
0,112000	0,835419	4,268799
0,113000	0,726471	4,999847
0,114000	0,854645	4,999847
0,115000	0,714264	4,999847
0,116000	0,857544	4,999847
0,117000	0,736694	4,999847
0,118000	0,832825	4,790497
0,119000	0,768127	3,280640
0,120000	0,809326	4,059143
0,121000	0,795441	4,999847
0,122000	0,789948	4,799194
0,123000	0,820770	4,999847
0,124000	0,772552	4,999847
0,125000	0,845032	4,999847
0,126000	0,757751	4,999847
0,127000	0,866699	4,999847
0,128000	0,743713	4,999847
0,129000	0,885315	4,210510
0,130000	0,735779	3,273163
0,131000	0,874023	4,502258
0,132000	0,769348	4,506378
0,133000	0,848999	4,999847
0,134000	0,800629	4,999847
0,135000	0,826721	4,999847
0,136000	0,827789	4,999847
0,137000	0,807953	4,999847
0,138000	0,853424	4,527435
0,139000	0,791016	2,704315
0,140000	0,876923	2,643433
0,141000	0,777283	4,791718
0,142000	0,898285	4,828033
0,143000	0,765228	4,999847
0,144000	0,912476	4,999847
0,145000	0,767670	4,999847
0,146000	0,887756	4,999847
0,147000	0,799255	4,999847
0,148000	0,862274	4,999847
0,149000	0,829468	4,400177
0,150000	0,841522	4,141998
0,151000	0,856781	3,132477
0,152000	0,823975	3,807068
0,153000	0,883331	4,999847
0,154000	0,811005	4,999847
0,155000	0,907745	4,999847
0,156000	0,797272	4,999847
0,157000	0,928650	4,999847
0,158000	0,785522	4,723969
0,159000	0,933838	3,085327
0,160000	0,806274	3,603058
0,161000	0,907288	4,999847
0,162000	0,839081	4,794006
0,163000	0,884247	4,999847
0,164000	0,868378	4,999847
0,165000	0,864716	4,999847
0,166000	0,894623	4,999847
0,167000	0,846863	4,999847
0,168000	0,918884	4,999847
0,169000	0,831757	3,660889
0,170000	0,941162	3,318787
0,171000	0,818939	4,812775
0,172000	0,960999	4,065857
0,173000	0,808258	4,999847
0,174000	0,951996	4,999847
0,175000	0,841980	4,999847
0,176000	0,926514	4,999847
0,177000	0,874023	4,999847
0,178000	0,904541	4,376373
0,179000	0,903473	3,686371
0,180000	0,884857	4,782257
0,181000	0,929108	3,892975
0,182000	0,868683	4,999847
0,183000	0,951385	4,999847
0,184000	0,853729	4,999847
0,185000	0,974274	4,999847
0,186000	0,841827	4,999847
0,187000	0,993652	4,999847
0,188000	0,844269	4,999847
0,189000	0,970459	4,320221
0,190000	0,878754	4,696350
0,191000	0,945740	2,677307
0,192000	0,910034	4,655762
0,193000	0,925140	4,999847
0,194000	0,938110	4,999847
0,195000	0,906372	4,999847
0,196000	0,964050	4,999847
0,197000	0,890198	4,999847
0,198000	0,986481	4,160309
0,199000	0,875854	3,546143
0,200000	1,006775	3,064728
0,201000	0,863190	3,598785
0,202000	1,014709	4,999847
0,203000	0,881042	4,999847
0,204000	0,988464	4,999847
0,205000	0,914307	4,999847
0,206000	0,938110	4,999847
0,207000	0,878906	4,999847
0,208000	0,917358	4,435883
0,209000	0,960541	4,846802
0,210000	0,921326	4,213867
0,211000	0,994720	3,258820
0,212000	0,910645	4,255371
0,213000	1,019135	4,965973
0,214000	0,898743	4,999847
0,215000	1,040344	4,999847
0,216000	0,886993	4,999847
0,217000	1,033783	4,999847
0,218000	0,918884	4,540558
0,219000	1,009369	3,792267
0,220000	0,951996	2,693481
0,221000	0,987091	4,601288
0,222000	0,981598	4,999847
0,223000	0,968170	4,999847
0,224000	1,007843	4,999847
0,225000	0,951233	4,999847
0,226000	1,032410	4,999847
0,227000	0,936432	4,999847
0,228000	1,054382	4,688873
0,229000	0,923615	4,492950
0,230000	1,075897	4,999847
0,231000	0,923157	3,098450
0,232000	1,056366	4,280701
0,233000	0,958099	4,999847
0,234000	1,033020	4,999847
0,235000	0,989532	4,999847
0,236000	1,011353	4,999847
0,237000	1,017914	4,999847
0,238000	0,992889	4,536743
0,239000	1,044922	3,142548
0,240000	0,975952	3,846130
0,241000	1,069031	3,263855
0,242000	0,961609	4,999847
0,243000	1,061401	4,999847
0,244000	0,913696	4,999847
0,245000	1,087189	4,999847
0,246000	0,955811	4,999847
0,247000	1,072998	4,999847
0,248000	0,994415	4,589691
0,249000	1,051636	4,308929
0,250000	1,024933	4,596863
0,251000	1,030731	3,051910
0,252000	1,052094	4,083557
0,253000	1,012268	4,999847
0,254000	1,078949	4,999847
0,255000	0,995331	4,999847
0,256000	1,101990	4,999847
0,257000	0,980377	4,999847
0,258000	1,119843	4,055786
0,259000	0,966644	3,925934
0,260000	1,110077	3,559265
0,261000	0,995789	2,959137
0,262000	1,083374	4,999847
0,263000	1,027374	4,999847
0,264000	1,061707	4,999847
0,265000	0,981598	4,999847
0,266000	0,996552	4,999847
0,267000	1,002197	4,999847
0,268000	1,005096	4,873810
0,269000	1,015472	3,932953
0,270000	1,104736	2,648163
0,271000	1,015320	4,143524
0,272000	1,079102	4,132080
0,273000	1,045990	4,999847
0,274000	1,058197	4,999847
0,275000	1,075287	4,999847
0,276000	1,037903	4,999847
0,277000	1,101074	4,999847
0,278000	1,021576	4,577789
0,279000	1,123047	3,760681
0,280000	1,007385	3,280640
0,281000	1,133728	4,543304
0,282000	0,994873	4,999847
0,283000	1,130066	4,999847
0,284000	1,007843	4,999847
0,285000	1,100922	4,999847
0,286000	1,041870	4,999847
0,287000	1,079407	4,999847
0,288000	1,074066	4,999847
0,289000	1,060791	4,669037
0,290000	1,103058	4,408112
0,291000	1,044159	3,007965
0,292000	1,125031	3,688965
0,293000	1,029968	4,999847
0,294000	1,136475	4,999847
0,295000	1,016998	4,999847
0,296000	1,140137	4,999847
0,297000	1,004944	4,999847
0,298000	1,122589	4,999847
0,299000	1,034393	3,384552
0,300000	1,098480	3,151703
0,301000	1,070251	4,751892
0,302000	1,080017	4,999847
0,303000	1,102753	4,999847
0,304000	1,062622	4,999847
0,305000	1,125336	4,999847
0,306000	1,048889	4,999847
0,307000	1,137695	4,999847
0,308000	1,036072	4,999847
0,309000	1,083374	4,242554
0,310000	1,015778	3,994904
0,311000	1,142578	4,031830
0,312000	1,015167	3,869324
0,313000	0,961151	4,999847
0,314000	0,938263	4,999847
0,315000	0,928345	4,999847
0,316000	0,924377	4,999847
0,317000	0,922852	4,999847
0,318000	0,922089	4,999847
0,319000	0,921173	3,683929
0,320000	0,921173	2,348480
0,321000	0,920868	4,611359
0,322000	0,921021	4,922333
0,323000	0,920715	4,999847
0,324000	0,920868	4,999847
0,325000	0,920258	4,999847
0,326000	0,920715	4,999847
0,327000	0,920715	4,999847
0,328000	0,920410	4,999847
0,329000	0,920410	4,389191
0,330000	0,920410	3,338470
0,331000	0,920258	3,416748
0,332000	0,849915	4,417114
0,333000	0,693970	4,858856
0,334000	0,613098	4,999847
0,335000	0,593719	4,999847
0,336000	0,571747	4,999847
0,337000	0,567322	4,999847
0,338000	0,568695	4,523163
0,339000	0,562286	3,409882
0,340000	0,572052	3,684998
0,341000	0,560150	4,115753
0,342000	0,577240	4,999847
0,343000	0,558929	4,999847
0,344000	0,584564	4,999847
0,345000	0,554504	4,999847
0,346000	0,582275	4,999847
0,347000	0,559387	4,999847
0,348000	0,578766	4,999847
0,349000	0,566406	4,067993
0,350000	0,575104	3,297729
0,351000	0,572815	3,490906
0,352000	0,571747	3,766022
0,353000	0,579224	4,999847
0,354000	0,568695	4,999847
0,355000	0,585480	4,999847
0,356000	0,565796	4,999847
0,357000	0,591431	4,999847
0,358000	0,563202	4,691467
0,359000	0,597382	2,943268
0,360000	0,561371	3,242340
0,361000	0,595856	4,129639
0,362000	0,569458	4,797058
0,363000	0,590363	4,999847
0,364000	0,578156	4,999847
0,365000	0,585785	4,999847
0,366000	0,586395	4,999847
0,367000	0,581207	4,999847
0,368000	0,593567	4,999847
0,369000	0,575714	4,156036
0,370000	0,599823	2,850800
0,371000	0,571747	4,512177
0,372000	0,606537	3,322754
0,373000	0,568085	4,999847
0,374000	0,613556	4,999847
0,375000	0,569916	4,999847
0,376000	0,607758	4,999847
0,377000	0,580750	4,999847
0,378000	0,601196	4,597168
0,379000	0,590057	2,809296
0,380000	0,594788	2,703857
0,381000	0,600433	4,840393
0,382000	0,589600	4,825897
0,383000	0,609436	4,999847
0,384000	0,584412	4,999847
0,385000	0,617828	4,999847
0,386000	0,579681	4,999847
0,387000	0,626221	4,999847
0,388000	0,575104	4,999847
0,389000	0,629883	3,611145
0,390000	0,582275	3,549194
0,391000	0,621033	3,773651
0,392000	0,594788	4,218292
0,393000	0,612335	4,999847
0,394000	0,605927	4,999847
0,395000	0,604706	4,999847
0,396000	0,616455	4,999847
0,397000	0,597992	4,999847
0,398000	0,626678	4,720001
0,399000	0,592041	3,221893
0,400000	0,635986	2,852173
0,401000	0,586090	4,999847
0,402000	0,645142	4,655304
0,403000	0,581665	4,999847
0,404000	0,642853	4,999847
0,405000	0,595551	4,999847
0,406000	0,632629	4,999847
0,407000	0,609131	4,999847
0,408000	0,623322	4,999847
0,409000	0,622406	3,808136
0,410000	0,614319	4,111023
0,411000	0,567627	3,578491
0,412000	0,550537	3,287354
0,413000	0,621643	4,999847
0,414000	0,589600	4,999847
0,415000	0,652008	4,999847
0,416000	0,591278	4,999847
0,417000	0,664978	4,999847
0,418000	0,593719	4,999847
0,419000	0,656281	3,069000
0,420000	0,610809	4,673462
0,421000	0,644989	3,363342
0,422000	0,626373	4,607849
0,423000	0,633850	4,999847
0,424000	0,640564	4,999847
0,425000	0,624695	4,999847
0,426000	0,653534	4,999847
0,427000	0,615692	4,999847
0,428000	0,666199	4,999847
0,429000	0,607910	3,967743
0,430000	0,677490	3,179626
0,431000	0,600586	4,774017
0,432000	0,683899	3,963776
0,433000	0,609741	4,999847
0,434000	0,669403	4,999847
0,435000	0,628052	4,999847
0,436000	0,656281	4,999847
0,437000	0,644226	4,999847
0,438000	0,644379	4,514771
0,439000	0,659485	3,535767
0,440000	0,633850	3,759308
0,441000	0,673981	3,264008
0,442000	0,624390	4,780426
0,443000	0,686951	4,999847
0,444000	0,615234	4,999847
0,445000	0,699310	4,999847
0,446000	0,608063	4,999847
0,447000	0,697479	4,999847
0,448000	0,627136	4,999847
0,449000	0,681458	4,162598
0,450000	0,645752	3,214264
0,451000	0,667114	4,861450
0,452000	0,663757	4,043121
0,453000	0,654449	4,999847
0,454000	0,680237	4,999847
0,455000	0,634155	4,999847
0,456000	0,691833	4,999847
0,457000	0,630798	4,999847
0,458000	0,708618	4,416046
0,459000	0,623169	3,688507
0,460000	0,722198	3,557281
0,461000	0,622711	4,929504
0,462000	0,709991	4,926910
0,463000	0,644684	4,999847
0,464000	0,692596	4,999847
0,465000	0,665283	4,999847
0,466000	0,677795	4,999847
0,467000	0,684357	4,999847
0,468000	0,664215	4,999847
0,469000	0,701904	4,522400
0,470000	0,652161	3,300323
0,471000	0,717926	4,664154
0,472000	0,641022	3,813477
0,473000	0,732880	4,999847
0,474000	0,631561	4,999847
0,475000	0,742340	4,999847
0,476000	0,641174	4,999847
0,477000	0,722351	4,999847
0,478000	0,664520	4,381104
0,479000	0,704193	3,721313
0,480000	0,686188	2,638550
0,481000	0,688477	4,999847
0,482000	0,706177	4,935150
0,483000	0,674438	4,999847
0,484000	0,724182	4,999847
0,485000	0,661469	4,999847
0,486000	0,740814	4,999847
0,487000	0,649719	4,999847
0,488000	0,756378	4,710846
0,489000	0,639648	4,036713
0,490000	0,754852	3,819580
0,491000	0,661163	4,079285
0,492000	0,733795	4,063721
0,493000	0,686188	4,999847
0,494000	0,715790	4,999847
0,495000	0,708313	4,999847
0,496000	0,698853	4,999847
0,497000	0,729065	4,999847
0,498000	0,683746	4,299469
0,499000	0,747528	4,147186
0,500000	0,670319	2,696991
0,501000	0,764771	4,670258
0,502000	0,658875	4,798279
0,503000	0,780792	4,999847
0,504000	0,655823	4,999847
0,505000	0,766907	4,999847
0,506000	0,683746	4,999847
0,507000	0,746002	4,999847
0,508000	0,708771	4,453583
0,509000	0,727081	4,047699
0,510000	0,732269	3,275757
0,511000	0,709839	3,911743
0,512000	0,753326	3,701477
0,513000	0,694580	4,999847
0,514000	0,697174	4,999847
0,515000	0,649719	4,999847
0,516000	0,776367	4,999847
0,517000	0,663605	4,999847
0,518000	0,800629	4,432678
0,519000	0,678253	3,383942
0,520000	0,778809	3,140411
0,521000	0,707550	3,901215
0,522000	0,757751	4,295807
0,523000	0,733337	4,999847
0,524000	0,738525	4,999847
0,525000	0,757446	4,999847
0,526000	0,721741	4,999847
0,527000	0,778656	4,999847
0,528000	0,706635	4,796295
0,529000	0,798492	4,649811
0,530000	0,693054	4,349518
0,531000	0,816040	3,563538
0,532000	0,681610	3,558655
0,533000	0,816803	4,999847
0,534000	0,704956	4,999847
0,535000	0,792694	4,999847
0,536000	0,733948	4,999847
0,537000	0,771179	4,999847
0,538000	0,760651	4,251556
0,539000	0,727081	4,005585
0,540000	0,771637	3,505096
0,541000	0,730286	3,333893
0,542000	0,804291	4,999847
0,543000	0,719910	4,999847
0,544000	0,825500	4,999847
0,545000	0,707397	4,999847
0,546000	0,844116	4,999847
0,547000	0,701752	4,999847
0,548000	0,830994	4,999847
0,549000	0,734253	4,920807
0,550000	0,805206	3,465576
0,551000	0,761566	4,170837
0,552000	0,785065	3,974762
0,553000	0,788879	4,747772
0,554000	0,767059	4,999847
0,555000	0,813141	4,999847
0,556000	0,750580	4,999847
0,557000	0,835266	4,999847
0,558000	0,736389	4,513550
0,559000	0,855103	4,069061
0,560000	0,724030	1,628113
0,561000	0,872040	3,772888
0,562000	0,732880	4,119263
0,563000	0,846100	4,999847
0,564000	0,764465	4,999847
0,565000	0,823059	4,999847
0,566000	0,793915	4,999847
0,567000	0,802155	4,999847
0,568000	0,820160	4,986115
0,569000	0,784454	4,046021
0,570000	0,843964	4,415436
0,571000	0,768890	4,209747
0,572000	0,866089	3,487701
0,573000	0,755005	4,999847
0,574000	0,885925	4,999847
0,575000	0,743256	4,999847
0,576000	0,888824	4,999847
0,577000	0,765991	4,999847
0,578000	0,863037	4,394073
0,579000	0,797577	3,644562
0,580000	0,840454	2,126617
0,581000	0,826416	4,188995
0,582000	0,820618	4,999847
0,583000	0,852509	4,999847
0,584000	0,803528	4,999847
0,585000	0,876465	4,999847
0,586000	0,788269	4,999847
0,587000	0,897522	4,999847
0,588000	0,775299	4,999847
0,589000	0,917511	4,985046
0,590000	0,766754	4,232635
0,591000	0,906067	4,041748
0,592000	0,800629	3,728027
0,593000	0,881042	4,999847
0,594000	0,831909	4,999847
0,595000	0,859070	4,999847
0,596000	0,860138	4,999847
0,597000	0,840302	4,999847
0,598000	0,885773	4,458771
0,599000	0,823517	3,704681
0,600000	0,908661	2,766266
0,601000	0,809021	4,790649
0,602000	0,930176	4,835205
0,603000	0,796661	4,999847
0,604000	0,949249	4,999847
0,605000	0,803528	4,999847
0,606000	0,899200	4,999847
0,607000	0,826721	4,999847
0,608000	0,895081	4,999847
0,609000	0,865326	4,232788
0,610000	0,877991	3,209076
0,611000	0,894318	4,354401
0,612000	0,860748	3,435822
0,613000	0,919800	4,999847
0,614000	0,844727	4,999847
0,615000	0,942688	4,999847
0,616000	0,737152	4,999847
0,617000	0,916138	4,999847
0,618000	0,799866	4,543457
0,619000	0,959625	3,477631
0,620000	0,836334	3,678741
0,621000	0,940399	4,474335
0,622000	0,872040	4,130096
0,623000	0,918732	4,999847
0,624000	0,902252	4,999847
0,625000	0,899353	4,999847
0,626000	0,929260	4,999847
0,627000	0,881653	4,999847
0,628000	0,953674	4,999847
0,629000	0,866547	4,127350
0,630000	0,975189	3,209534
0,631000	0,853271	4,999847
0,632000	0,995483	3,258514
0,633000	0,842133	4,999847
0,634000	0,986023	4,999847
0,635000	0,876465	4,999847
0,636000	0,960846	4,999847
0,637000	0,908661	4,999847
0,638000	0,938873	4,756012
0,639000	0,937805	3,288574
0,640000	0,920105	3,863678
0,641000	0,963287	3,750000
0,642000	0,902863	4,935455
0,643000	0,987549	4,999847
0,644000	0,888062	4,999847
0,645000	1,008301	4,999847
0,646000	0,876160	4,999847
0,647000	1,028137	4,999847
0,648000	0,879364	4,999847
0,649000	1,004944	4,942627
0,650000	0,913696	3,719025
0,651000	0,980835	3,899841
0,652000	0,944366	3,936920
0,653000	0,960236	4,999847
0,654000	0,972900	4,999847
0,655000	0,942230	4,999847
0,656000	0,998077	4,999847
0,657000	0,926208	4,999847
0,658000	1,021423	4,888916
0,659000	0,912170	3,287659
0,660000	1,042633	3,955078
0,661000	0,899963	3,130646
0,662000	1,052551	4,611206
0,663000	0,918732	4,999847
0,664000	1,027527	4,999847
0,665000	0,951996	4,999847
0,666000	1,004486	4,999847
0,667000	0,981903	4,999847
0,668000	0,984192	4,999847
0,669000	1,008911	4,187317
0,670000	0,966339	3,257294
0,671000	1,033936	4,643707
0,672000	0,951385	3,596802
0,673000	1,057587	4,999847
0,674000	0,937805	4,999847
0,675000	1,079407	4,999847
0,676000	0,925140	4,999847
0,677000	1,073608	4,999847
0,678000	0,957336	4,999847
0,679000	1,049194	3,099670
0,680000	0,989227	3,545074
0,681000	1,027069	4,805756
0,682000	1,018524	4,210968
0,683000	1,007538	4,999847
0,684000	1,044464	4,999847
0,685000	0,970001	4,999847
0,686000	1,060944	4,999847
0,687000	0,970459	4,999847
0,688000	1,091156	4,999847
0,689000	0,959625	3,914337
0,690000	1,110229	3,879852
0,691000	0,958557	4,543610
0,692000	1,055908	3,269196
0,693000	0,978546	4,999847
0,694000	1,059113	4,999847
0,695000	1,020966	4,999847
0,696000	1,040802	4,999847
0,697000	1,051178	4,999847
0,698000	1,021729	4,999847
0,699000	1,078339	2,940979
0,700000	1,004944	4,590454
0,701000	1,101227	3,513184
0,702000	0,989075	4,301605
0,703000	0,983429	4,999847
0,704000	0,993042	4,999847
0,705000	0,997467	4,999847
0,706000	1,035004	4,999847
0,707000	1,063385	4,999847
0,708000	1,047363	4,999847
0,709000	1,041870	4,583740
0,710000	1,074982	2,832184
0,711000	1,023865	3,550110
0,712000	1,100006	3,199158
0,713000	1,007690	4,999847
0,714000	1,118011	4,999847
0,715000	0,993347	4,999847
0,716000	1,127167	4,999847
0,717000	0,980225	4,999847
0,718000	1,088104	4,997101
0,719000	0,949097	4,010162
0,720000	1,077576	4,401550
0,721000	1,041412	4,093781
0,722000	1,064148	4,617157
0,723000	1,075134	4,999847
0,724000	1,046295	4,999847
0,725000	1,102600	4,999847
0,726000	1,030426	4,999847
0,727000	1,121368	4,999847
0,728000	1,015625	4,999847
0,729000	1,130066	3,807526
0,730000	1,003265	4,338837
0,731000	1,133118	3,433380
0,732000	1,002655	3,928986
0,733000	1,104431	4,999847
0,734000	1,038208	4,999847
0,735000	1,082916	4,999847
0,736000	1,072235	4,999847
0,737000	1,065063	4,999847
0,738000	1,101990	4,629974
0,739000	1,050110	3,918915
0,740000	1,122894	3,935394
0,741000	1,036072	3,604584
0,742000	1,132050	4,999847
0,743000	1,023865	4,999847
0,744000	1,134796	4,999847
0,745000	1,012421	4,999847
0,746000	1,127014	4,999847
0,747000	1,028442	4,999847
0,748000	1,100311	4,999847
0,749000	0,995483	4,595490
0,750000	0,948639	3,983917
0,751000	0,929260	3,844757
0,752000	0,920715	3,338928
0,753000	0,917206	4,885254
0,754000	0,915375	4,999847
0,755000	0,914459	4,999847
0,756000	0,914154	4,999847
0,757000	0,914001	4,999847
0,758000	0,913696	4,802551
0,759000	0,914001	4,114838
0,760000	0,913849	2,677460
0,761000	0,914001	4,999847
0,762000	0,913696	4,669495
0,763000	0,913849	4,999847
0,764000	0,913696	4,999847
0,765000	0,914154	4,999847
0,766000	0,913239	4,999847
0,767000	0,913696	4,999847
0,768000	0,913696	4,999847
0,769000	0,913696	4,547882
0,770000	0,735626	4,999847
0,771000	0,623474	3,303680
0,772000	0,598145	3,185883
0,773000	0,561066	4,999847
0,774000	0,576324	4,999847
0,775000	0,552063	4,999847
0,776000	0,568848	4,999847
0,777000	0,546875	4,999847
0,778000	0,551758	4,277039
0,779000	0,555115	3,249969
0,780000	0,560455	4,904175
0,781000	0,565338	3,497314
0,782000	0,559692	4,252472
0,783000	0,571747	4,999847
0,784000	0,558014	4,999847
0,785000	0,577545	4,999847
0,786000	0,556183	4,999847
0,787000	0,582428	4,999847
0,788000	0,554352	4,767151
0,789000	0,584869	4,010010
0,790000	0,559540	4,026337
0,791000	0,581207	3,835297
0,792000	0,567474	3,508453
0,793000	0,576935	4,999847
0,794000	0,574951	4,999847
0,795000	0,573578	4,999847
0,796000	0,581665	4,999847
0,797000	0,569763	4,999847
0,798000	0,588531	4,717255
0,799000	0,566864	3,569794
0,800000	0,594940	4,178925
0,801000	0,563812	3,000031
0,802000	0,601349	4,999847
0,803000	0,562134	4,999847
0,804000	0,599518	4,999847
0,805000	0,571289	4,999847
0,806000	0,593719	4,999847
0,807000	0,580444	4,999847
0,808000	0,588379	4,999847
0,809000	0,589294	4,661255
0,810000	0,583496	4,327545
0,811000	0,597839	2,922363
0,812000	0,579071	4,377289
0,813000	0,606079	4,999847
0,814000	0,574951	4,999847
0,815000	0,613251	4,999847
0,816000	0,571289	4,999847
0,817000	0,621033	4,999847
0,818000	0,573730	4,514465
0,819000	0,613708	4,083862
0,820000	0,585785	2,869873
0,821000	0,518951	4,012604
0,822000	0,559082	4,999847
0,823000	0,584564	4,999847
0,824000	0,600128	4,999847
0,825000	0,591278	4,999847
0,826000	0,614929	4,999847
0,827000	0,588074	4,999847
0,828000	0,625000	4,571991
0,829000	0,583344	4,619446
0,830000	0,632629	2,818146
0,831000	0,578003	4,613647
0,832000	0,636139	4,089508
0,833000	0,586853	4,999847
0,834000	0,626984	4,999847
0,835000	0,599670	4,999847
0,836000	0,617828	4,999847
0,837000	0,611420	4,999847
0,838000	0,610046	4,460907
0,839000	0,622864	3,634949
0,840000	0,602722	2,708435
0,841000	0,633392	3,764954
0,842000	0,595703	4,999847
0,843000	0,643463	4,999847
0,844000	0,590057	4,999847
0,845000	0,652618	4,999847
0,846000	0,585327	4,999847
0,847000	0,649719	4,999847
0,848000	0,599976	4,946594
0,849000	0,638275	4,789886
0,850000	0,614471	2,602692
0,851000	0,628510	4,897003
0,852000	0,628052	4,169769
0,853000	0,619507	4,908905
0,854000	0,640717	4,999847
0,855000	0,611267	4,999847
0,856000	0,652313	4,999847
0,857000	0,603333	4,999847
0,858000	0,655823	4,801788
0,859000	0,579834	4,551544
0,860000	0,666809	2,868500
0,861000	0,582428	3,938599
0,862000	0,655975	4,999847
0,863000	0,613251	4,999847
0,864000	0,636444	4,999847
0,865000	0,626068	4,999847
0,866000	0,626068	4,999847
0,867000	0,640717	4,999847
0,868000	0,626526	4,845734
0,869000	0,659027	4,999847
0,870000	0,618896	4,305115
0,871000	0,672607	3,066101
0,872000	0,611115	4,188843
0,873000	0,684509	4,728241
0,874000	0,603790	4,999847
0,875000	0,690002	4,999847
0,876000	0,614014	4,999847
0,877000	0,674744	4,999847
0,878000	0,632935	4,975891
0,879000	0,661011	3,968658
0,880000	0,650177	2,553101
0,881000	0,649261	4,131775
0,882000	0,652008	4,999847
0,883000	0,632477	4,999847
0,884000	0,678253	4,999847
0,885000	0,627289	4,999847
0,886000	0,693970	4,999847
0,887000	0,619049	4,999847
0,888000	0,707397	4,999847
0,889000	0,611420	4,056702
0,890000	0,703888	3,335419
0,891000	0,631561	4,790802
0,892000	0,687714	3,991394
0,893000	0,652008	4,999847
0,894000	0,672913	4,999847
0,895000	0,670624	4,999847
0,896000	0,660095	4,999847
0,897000	0,687561	4,999847
0,898000	0,647888	4,999847
0,899000	0,703125	4,116821
0,900000	0,637054	3,969116
0,901000	0,717468	3,486328
0,902000	0,627747	4,999847
0,903000	0,730896	4,999847
0,904000	0,627747	4,999847
0,905000	0,716705	4,999847
0,906000	0,650940	4,999847
0,907000	0,699310	4,999847
0,908000	0,672302	4,999847
0,909000	0,683136	4,306335
0,910000	0,691376	2,510223
0,911000	0,669708	4,404907
0,912000	0,709381	3,296661
0,913000	0,657501	4,999847
0,914000	0,726013	4,999847
0,915000	0,646210	4,999847
0,916000	0,741119	4,999847
0,917000	0,635834	4,999847
0,918000	0,749817	4,999847
0,919000	0,647430	3,631134
0,920000	0,728912	3,012238
0,921000	0,671387	4,015198
0,922000	0,710754	4,517670
0,923000	0,626831	4,999847
0,924000	0,637665	4,999847
0,925000	0,690155	4,999847
0,926000	0,669556	4,999847
0,927000	0,727844	4,999847
0,928000	0,664825	4,999847
0,929000	0,748749	3,543396
0,930000	0,653839	2,542114
0,931000	0,764465	4,999847
0,932000	0,644073	4,090424
0,933000	0,761261	4,991455
0,934000	0,668030	4,999847
0,935000	0,740356	4,999847
0,936000	0,692902	4,999847
0,937000	0,721436	4,999847
0,938000	0,715942	4,644165
0,939000	0,704498	4,007111
0,940000	0,736847	3,297729
0,941000	0,689545	4,999847
0,942000	0,756073	4,999847
0,943000	0,676270	4,999847
0,944000	0,773468	4,999847
0,945000	0,664215	4,999847
0,946000	0,789642	4,999847
0,947000	0,662537	4,999847
0,948000	0,774384	4,999847
0,949000	0,691223	4,160004
0,950000	0,753021	4,245605
0,951000	0,717163	4,999847
0,952000	0,733337	3,710632
0,953000	0,740509	4,999847
0,954000	0,716400	4,999847
0,955000	0,761414	4,999847
0,956000	0,700836	4,999847
0,957000	0,782013	4,999847
0,958000	0,687561	4,999847
0,959000	0,799713	3,641968
0,960000	0,675354	4,174805
0,961000	0,810699	3,173676
0,962000	0,686340	4,999847
0,963000	0,786743	4,999847
0,964000	0,715485	4,999847
0,965000	0,764771	4,999847
0,966000	0,741730	4,999847
0,967000	0,745850	4,999847
0,968000	0,765839	4,999847
0,969000	0,728455	4,365997
0,970000	0,787964	4,081573
0,971000	0,713043	4,029388
0,972000	0,807953	3,262329
0,973000	0,700226	4,999847
0,974000	0,826263	4,999847
0,975000	0,688477	4,999847
0,976000	0,825043	4,999847
0,977000	0,713806	4,999847
0,978000	0,800629	4,999847
0,979000	0,743408	3,555145
0,980000	0,779114	4,718018
0,981000	0,770264	3,699188
0,982000	0,760040	4,518585
0,983000	0,794373	4,999847
0,984000	0,743561	4,999847
0,985000	0,816498	4,999847
0,986000	0,727997	4,999847
0,987000	0,836639	4,999847
0,988000	0,715485	4,999847
0,989000	0,854950	3,859100
0,990000	0,711670	3,342743
0,991000	0,839539	4,552917
0,992000	0,743256	3,173218
0,993000	0,815430	4,999847
0,994000	0,772858	4,999847
0,995000	0,794525	4,999847
0,996000	0,799713	4,999847
0,997000	0,775452	4,999847
0,998000	0,823669	4,999847
0,999000	0,759583	3,660583

